%OpenBCI Raw EEG Data % %Sample Rate = 250.0 Hz %First Column = SampleIndex %Other Columns = EEG data in microvolts
-29, 8081.03, -865.44, 19319.28, 31468.30, 4714.09, 36761.35, -587.38, 26779.51
-28, 7641.59, -845.37, 18335.31, 29751.33, 4410.33, 34759.82, -586.38, 25320.54
-27, 11011.34, -1218.13, 26441.22, 42836.22, 6349.84, 50050.63, -838.01, 36456.92
-26, 11253.32, -1239.29, 27008.26, 43812.66, 6513.92, 51190.20, -847.11, 37284.79
-25, 8650.79, -943.85, 20747.91, 33684.50, 5021.52, 39353.35, -641.34, 28665.91
-24, 7839.11, -858.66, 18819.74, 30543.50, 4541.02, 35679.64, -587.60, 25991.48
-23, 9083.59, -988.33, 21808.86, 35371.27, 5258.18, 41330.65, -674.69, 30106.37
-22, 9370.79, -1021.45, 22475.91, 36478.40, 5420.41, 42621.87, -699.86, 31046.37
-21, 8285.79, -904.84, 19865.83, 32214.38, 4782.71, 37647.51, -621.60, 27421.97
-20, 7669.91, -839.35, 18382.90, 29819.39, 4430.27, 34849.56, -573.88, 25382.28
-19, 7913.70, -873.89, 18990.96, 30806.51, 4576.32, 36001.14, -589.77, 26218.50
-18, 7970.50, -873.06, 19110.25, 31023.08, 4608.30, 36247.33, -596.34, 26399.82
-17, 7534.79, -829.74, 18101.85, 29343.43, 4341.69, 34289.47, -572.54, 24970.43
-16, 7067.73, -779.76, 16950.02, 27509.54, 4085.27, 32144.98, -534.47, 23408.91
-15, 6720.05, -744.63, 16135.54, 26167.65, 3879.57, 30575.26, -508.90, 22270.78
-14, 6573.11, -718.56, 15760.03, 25569.88, 3804.15, 29875.92, -488.54, 21763.80
-13, 6354.24, -697.91, 15231.15, 24721.16, 3670.22, 28886.25, -478.80, 21041.08
-12, 6094.00, -660.34, 14592.02, 23707.84, 3529.72, 27698.05, -451.57, 20178.93
-11, 5942.61, -658.82, 14268.30, 23129.65, 3429.47, 27033.92, -450.92, 19693.38
-10, 5895.92, -637.14, 14126.64, 22906.45, 3399.97, 26767.42, -442.90, 19495.70
-9, 5690.13, -619.81, 13647.84, 22128.83, 3282.73, 25862.98, -432.44, 18841.65
-8, 5397.81, -581.77, 12929.97, 20992.73, 3125.47, 24533.52, -406.00, 17870.22
-7, 5238.02, -580.68, 12572.52, 20387.65, 3022.58, 23823.58, -404.10, 17351.32
-6, 5049.71, -570.26, 12130.45, 19676.98, 2920.08, 22988.65, -384.58, 16741.30
-5, 4790.45, -521.67, 11467.76, 18610.87, 2772.38, 21739.91, -355.71, 15830.26
-4, 4611.03, -507.74, 11054.19, 17935.57, 2661.62, 20955.25, -352.49, 15258.26
-3, 4572.52, -496.63, 10968.67, 17785.75, 2636.48, 20777.11, -352.38, 15126.72
-2, 4449.96, -484.76, 10687.80, 17343.10, 2570.50, 20260.56, -343.50, 14752.26
-1, 4205.75, -465.65, 10115.62, 16417.35, 2436.12, 19175.96, -322.87, 13964.38
0, 4023.65, -449.52, 9686.17, 15717.07, 2335.71, 18357.08, -308.95, 13369.87
-29, 3971.23, -452.49, 9555.46, 15480.57, 2297.27, 18086.45, -309.93, 13172.15
-28, 3887.95, -442.05, 9329.19, 15135.75, 2251.11, 17681.61, -305.08, 12874.67
-27, 3697.16, -412.08, 8876.95, 14375.84, 2140.11, 16792.82, -288.54, 12224.50
-26, 3528.74, -387.07, 8454.57, 13713.51, 2048.16, 16014.22, -269.20, 11659.18
-25, 3449.34, -385.10, 8279.55, 13409.03, 1990.78, 15656.12, -268.76, 11397.69
-24, 3209.40, -353.18, 7708.24, 12489.26, 1853.99, 14590.90, -246.41, 10625.75
-23, 2951.59, -325.98, 7099.90, 11509.38, 1689.17, 13446.36, -240.17, 9788.43
-22, 2885.74, -308.99, 6921.66, 11233.83, 1665.16, 13126.60, -218.78, 9557.16
-21, 2746.20, -309.24, 6606.77, 10720.66, 1577.09, 12524.17, -221.24, 9120.07
-20, 2605.83, -295.33, 6258.44, 10176.23, 1507.78, 11885.76, -204.90, 8654.28
-19, 2501.29, -304.05, 6031.73, 9783.40, 1442.60, 11431.49, -202.80, 8325.73
-18, 2436.70, -284.07, 5860.07, 9510.55, 1411.67, 11107.30, -187.89, 8090.17
-17, 2323.46, -267.53, 5607.96, 9084.20, 1342.20, 10609.32, -184.13, 7726.71
-16, 2102.20, -238.65, 5080.53, 8228.68, 1228.03, 9610.13, -158.52, 7001.88
-15, 1942.52, -224.26, 4669.90, 7581.13, 1125.57, 8854.40, -149.22, 6447.23
-14, 1840.22, -202.22, 4412.32, 7160.11, 1064.41, 8363.91, -134.65, 6090.74
-13, 1752.98, -183.80, 4195.62, 6798.95, 1008.00, 7938.91, -126.91, 5781.97
-12, 1670.99, -176.74, 4021.84, 6518.35, 972.01, 7609.09, -117.19, 5541.09
-11, 1480.45, -173.58, 3595.72, 5822.70, 867.99, 6797.79, -106.71, 4949.57
-10, 1400.29, -164.84, 3381.71, 5479.60, 817.67, 6406.01, -102.19, 4664.27
-9, 1331.87, -159.43, 3216.95, 5199.75, 773.53, 6082.98, -96.49, 4428.89
-8, 1260.30, -149.64, 3031.07, 4914.88, 737.16, 5743.53, -91.55, 4182.77
-7, 1095.28, -121.21, 2644.35, 4292.94, 645.36, 5014.39, -74.52, 3651.96
-6, 1020.56, -120.90, 2481.18, 4016.09, 591.00, 4685.37, -77.72, 3410.38
-5, 957.66, -106.33, 2313.20, 3764.46, 560.76, 4391.27, -69.07, 3200.03
-4, 882.74, -111.54, 2144.85, 3469.55, 509.20, 4049.17, -71.84, 2949.96
-3, 819.15, -101.70, 1973.41, 3204.17, 483.49, 3740.01, -58.29, 2724.86
-2, 692.81, -80.53, 1671.15, 2707.51, 411.09, 3162.35, -48.84, 2306.30
-1, 553.34, -62.05, 1354.58, 2194.27, 334.47, 2558.78, -40.32, 1865.59
0, 449.83, -49.24, 1078.74, 1734.76, 266.43, 2025.87, -31.83, 1474.08
-29, 387.31, -46.40, 940.49, 1495.47, 216.88, 1748.96, -34.00, 1270.09
-28, 343.37, -35.83, 798.25, 1278.30, 192.94, 1490.12, -24.68, 1084.82
-27, 274.75, -37.35, 666.95, 1053.35, 154.50, 1226.48, -28.65, 889.71
-26, 153.20, -18.51, 424.01, 655.24, 108.27, 758.84, -10.59, 554.46
-25, 108.70, -15.24, 302.98, 461.72, 89.70, 531.21, 3.04, 390.24
-24, 63.01, -18.35, 166.79, 254.65, 51.05, 295.87, 1.25, 218.40
-23, 24.68, -14.80, 46.47, 63.08, 12.81, 71.48, -6.68, 51.14
-22, -65.98, 9.81, -185.16, -316.48, -56.46, -369.83, -14.39, -273.94
-21, -119.07, 15.85, -301.23, -498.85, -85.27, -578.95, -17.84, -427.21
-20, -152.10, 21.68, -396.36, -670.40, -111.96, -786.09, -13.32, -574.44
-19, -176.18, 24.86, -507.07, -835.71, -135.54, -978.94, -9.99, -715.08
-18, -224.55, 15.09, -605.02, -1014.79, -166.70, -1190.21, -17.64, -871.34
-17, -264.56, 24.79, -704.17, -1165.20, -183.24, -1370.56, -12.27, -1002.21
-16, -309.88, 26.71, -785.24, -1320.00, -210.53, -1550.65, -8.43, -1133.64
-15, -350.74, 32.05, -880.41, -1455.77, -216.03, -1705.35, 7.60, -1242.35
-14, -388.52, 32.83, -967.63, -1614.62, -249.33, -1894.56, 7.22, -1376.08
-13, -412.70, 46.31, -1056.88, -1741.33, -255.30, -2039.95, 25.15, -1477.58
-12, -464.16, 28.92, -1148.03, -1893.82, -292.54, -2218.05, 14.77, -1609.41
-11, -497.08, 41.04, -1234.60, -2016.62, -302.02, -2367.16, 20.12, -1722.07
-10, -540.69, 46.80, -1311.87, -2156.12, -331.41, -2527.98, 19.98, -1842.88
-9, -569.50, 67.57, -1397.50, -2275.09, -343.12, -2667.43, 23.83, -1947.75
-8, -604.23, 67.68, -1466.54, -2411.62, -374.53, -2823.74, 21.95, -2061.88
-7, -637.16, 75.84, -1541.42, -2515.73, -377.43, -2946.90, 35.09, -2152.50
-6, -700.93, 67.12, -1680.87, -2749.06, -407.94, -3214.02, 41.06, -2346.08
-5, -726.86, 68.15, -1743.84, -2864.17, -427.07, -3349.10, 42.40, -2443.00
-4, -774.53, 73.07, -1876.18, -3069.01, -455.51, -3583.72, 54.45, -2607.87
-3, -805.56, 73.29, -1939.10, -3164.78, -467.02, -3700.24, 60.35, -2689.54
-2, -841.12, 69.07, -2002.74, -3267.60, -494.11, -3817.70, 56.28, -2777.81
-1, -855.83, 82.12, -2056.32, -3361.41, -503.05, -3927.00, 61.20, -2854.90
0, -878.62, 86.37, -2121.23, -3456.00, -520.21, -4040.84, 56.75, -2935.81
-29, -896.84, 96.22, -2174.85, -3544.87, -533.47, -4146.78, 58.85, -3015.43
-28, -926.52, 99.58, -2235.00, -3629.45, -542.57, -4247.93, 63.21, -3087.33
-27, -964.66, 94.48, -2283.25, -3721.99, -558.35, -4351.77, 63.23, -3162.91
-26, -992.28, 98.39, -2336.96, -3797.90, -563.15, -4439.12, 71.32, -3224.82
-25, -1006.03, 100.83, -2377.62, -3883.77, -582.91, -4537.02, 73.07, -3297.55
-24, -1014.32, 106.28, -2424.38, -3949.49, -582.15, -4613.56, 83.73, -3351.04
-23, -1033.88, 94.91, -2457.31, -4027.34, -594.04, -4706.34, 90.57, -3416.82
-22, -1046.02, 104.78, -2505.56, -4083.17, -588.21, -4771.47, 101.92, -3464.72
-21, -1074.45, 102.44, -2551.88, -4169.31, -618.58, -4868.54, 86.79, -3542.64
-20, -1100.00, 111.29, -2600.20, -4225.98, -619.10, -4934.64, 91.46, -3594.47
-19, -1113.59, 107.00, -2642.04, -4307.99, -647.19, -5029.32, 76.87, -3667.34
-18, -1109.25, 125.35, -2688.67, -4358.32, -651.42, -5094.30, 75.77, -3717.59
-17, -1131.85, 117.97, -2719.67, -4427.57, -672.83, -5176.06, 72.55, -3778.00
-16, -1138.53, 136.52, -2756.13, -4469.45, -664.70, -5229.55, 81.99, -3816.34
-15, -1157.62, 138.63, -2800.83, -4539.44, -696.01, -5312.96, 66.14, -3881.13
-14, -1166.31, 151.68, -2838.45, -4587.52, -694.74, -5368.22, 70.41, -3922.22
-13, -1194.52, 137.24, -2869.70, -4650.59, -716.51, -5446.05, 61.94, -3979.66
-12, -1200.62, 141.78, -2898.46, -4688.99, -715.88, -5494.95, 68.69, -4012.14
-11, -1221.61, 138.58, -2929.69, -4748.43, -739.31, -5561.52, 59.57, -4063.32
-10, -1229.12, 151.63, -2957.38, -4782.07, -738.99, -5600.45, 62.54, -4096.45
-9, -1243.09, 155.08, -2980.76, -4828.83, -748.18, -5655.33, 63.01, -4131.16
-8, -1246.33, 162.45, -3006.38, -4866.78, -743.49, -5697.15, 69.31, -4158.97
-7, -1261.98, 153.09, -3039.12, -4911.55, -750.73, -5747.82, 64.84, -4195.40
-6, -1277.80, 140.28, -3060.04, -4945.55, -758.13, -5790.62, 68.60, -4226.76
-5, -1289.09, 140.61, -3088.90, -4985.40, -767.72, -5835.97, 66.59, -4261.16
-4, -1289.02, 146.47, -3105.86, -5019.73, -774.76, -5883.94, 66.59, -4293.57
-3, -1305.07, 149.78, -3127.17, -5047.54, -774.67, -5913.35, 72.44, -4315.54
-2, -1317.59, 141.91, -3138.68, -5082.52, -778.85, -5955.29, 76.67, -4344.13
-1, -1323.98, 148.15, -3162.03, -5103.93, -774.11, -5980.01, 80.60, -4361.47
0, -1336.72, 139.41, -3180.65, -5141.06, -788.41, -6017.69, 73.20, -4393.61
-29, -1334.58, 148.06, -3201.57, -5163.52, -784.21, -6042.88, 74.81, -4411.29
-28, -1334.56, 158.85, -3203.88, -5194.84, -794.16, -6082.53, 75.39, -4437.69
-27, -1329.82, 169.09, -3217.91, -5205.18, -778.89, -6092.64, 88.00, -4441.54
-26, -1342.47, 155.05, -3226.18, -5240.79, -789.93, -6130.35, 88.96, -4467.64
-25, -1352.77, 150.34, -3247.22, -5248.79, -784.50, -6143.73, 94.66, -4476.18
-24, -1365.20, 141.80, -3258.93, -5284.87, -805.85, -6187.59, 81.27, -4508.01
-23, -1370.59, 150.34, -3277.35, -5291.51, -796.35, -6196.71, 87.64, -4511.36
-22, -1392.76, 144.46, -3278.89, -5320.72, -810.54, -6228.83, 81.25, -4539.28
-21, -1374.43, 166.25, -3285.17, -5319.11, -793.78, -6230.06, 97.34, -4538.32
-20, -1383.77, 154.70, -3300.32, -5347.10, -809.69, -6262.60, 90.82, -4561.54
-19, -1377.67, 153.27, -3314.38, -5360.15, -800.68, -6272.17, 97.23, -4568.36
-18, -1382.90, 142.51, -3318.81, -5385.92, -816.00, -6297.69, 90.48, -4587.69
-17, -1383.73, 150.45, -3324.13, -5384.76, -800.48, -6290.74, 101.88, -4580.97
-16, -1397.48, 148.95, -3325.09, -5403.40, -803.59, -6308.69, 102.84, -4593.60
-15, -1383.28, 161.85, -3325.98, -5397.36, -790.51, -6303.08, 113.17, -4590.24
-14, -1393.45, 159.95, -3334.97, -5408.90, -800.46, -6318.52, 108.41, -4602.69
-13, -1385.72, 162.09, -3342.52, -5412.85, -801.44, -6321.52, 109.90, -4604.24
-12, -1395.04, 151.50, -3347.78, -5425.13, -811.68, -6332.23, 111.16, -4614.85
-11, -1406.48, 147.52, -3361.01, -5431.45, -816.46, -6343.02, 104.54, -4622.54
-10, -1401.61, 152.64, -3355.33, -5439.56, -814.27, -6353.04, 109.34, -4627.50
-9, -1395.67, 153.67, -3356.74, -5432.90, -804.71, -6348.59, 111.65, -4625.83
-8, -1395.62, 152.86, -3350.26, -5439.30, -804.91, -6352.79, 112.38, -4628.62
-7, -1394.41, 158.36, -3359.91, -5438.25, -803.79, -6350.64, 112.70, -4623.23
-6, -1398.03, 149.80, -3354.80, -5444.39, -813.60, -6360.68, 104.99, -4636.53
-5, -1400.58, 154.50, -3360.09, -5436.82, -804.28, -6349.39, 109.70, -4628.42
-4, -1410.06, 150.54, -3356.54, -5446.49, -813.47, -6359.18, 102.37, -4638.86
-3, -1394.12, 161.85, -3356.40, -5429.80, -799.99, -6352.83, 106.19, -4630.34
-2, -1396.72, 148.35, -3341.00, -5432.08, -803.68, -6351.83, 105.61, -4631.50
-1, -1395.80, 147.88, -3347.20, -5416.41, -791.56, -6335.24, 108.63, -4617.38
0, -1392.69, 153.56, -3339.51, -5409.14, -805.15, -6324.16, 100.05, -4613.78
-29, -1402.33, 152.89, -3338.57, -5418.46, -820.38, -6332.40, 87.06, -4623.28
-28, -1386.66, 170.77, -3337.90, -5399.91, -810.99, -6318.55, 93.32, -4610.16
-27, -1390.43, 160.71, -3329.11, -5404.61, -819.66, -6318.26, 87.91, -4609.26
-26, -1382.14, 159.77, -3329.74, -5380.06, -807.08, -6292.91, 95.89, -4593.53
-25, -1367.55, 165.81, -3318.65, -5362.18, -809.92, -6269.93, 98.10, -4576.03
-24, -1383.44, 152.66, -3309.71, -5357.65, -816.73, -6266.11, 94.35, -4570.77
-23, -1383.08, 154.54, -3298.36, -5334.00, -798.69, -6238.64, 105.03, -4549.34
-22, -1394.66, 143.41, -3299.36, -5333.48, -804.10, -6236.45, 98.66, -4545.76
-21, -1384.56, 148.06, -3283.69, -5320.94, -796.53, -6215.66, 105.77, -4527.90
-20, -1378.30, 150.18, -3276.88, -5310.01, -797.31, -6198.88, 103.51, -4515.88
-19, -1366.43, 151.25, -3262.21, -5294.88, -792.21, -6179.38, 108.76, -4499.99
-18, -1366.83, 147.68, -3252.36, -5278.10, -787.63, -6161.03, 109.68, -4479.83
-17, -1365.71, 143.10, -3242.01, -5264.75, -785.84, -6149.10, 107.22, -4472.00
-16, -1365.62, 131.56, -3241.02, -5246.31, -779.14, -6132.87, 105.88, -4461.16
-15, -1362.14, 131.85, -3228.75, -5243.79, -780.10, -6125.00, 100.99, -4455.17
-14, -1346.58, 146.47, -3204.97, -5185.09, -765.10, -6061.48, 101.92, -4411.21
-13, -1344.52, 144.01, -3189.26, -5177.24, -779.05, -6051.96, 93.81, -4406.91
-12, -1332.63, 143.43, -3180.70, -5145.57, -762.55, -6017.36, 106.19, -4379.04
-11, -1332.63, 129.19, -3166.19, -5138.53, -773.15, -6004.08, 100.83, -4369.88
-10, -1318.15, 139.32, -3161.36, -5111.82, -758.53, -5972.88, 104.23, -4346.25
-9, -1323.69, 128.72, -3143.97, -5104.58, -764.85, -5965.59, 100.11, -4339.57
-8, -1318.06, 146.07, -3133.96, -5073.47, -749.10, -5928.69, 106.68, -4310.80
-7, -1308.65, 146.09, -3109.80, -5035.65, -745.01, -5881.68, 105.72, -4274.55
-6, -1316.67, 131.23, -3101.06, -5037.26, -757.41, -5876.14, 97.03, -4269.47
-5, -1291.66, 130.33, -3096.68, -5008.47, -744.16, -5847.04, 103.71, -4247.01
-4, -1289.18, 123.45, -3077.61, -4996.91, -751.04, -5830.76, 99.67, -4236.79
-3, -1279.48, 132.70, -3064.89, -4964.63, -731.44, -5793.71, 109.86, -4208.90
-2, -1275.08, 127.38, -3047.10, -4951.20, -732.24, -5775.53, 105.43, -4198.48
-1, -1270.32, 132.64, -3030.20, -4921.14, -717.31, -5735.95, 114.64, -4169.56
0, -1281.81, 134.60, -3023.07, -4908.91, -722.86, -5721.04, 105.90, -4158.59
-29, -1265.96, 138.18, -3006.06, -4883.36, -714.41, -5691.02, 108.81, -4139.72
-28, -1254.58, 138.20, -2998.44, -4867.29, -719.61, -5668.11, 102.17, -4124.97
-27, -1243.58, 139.92, -2980.43, -4845.16, -719.64, -5649.72, 98.39, -4111.27
-26, -1240.43, 134.18, -2971.08, -4824.80, -715.08, -5625.20, 95.64, -4094.75
-25, -1240.07, 127.78, -2943.19, -4772.43, -706.32, -5571.60, 93.45, -4059.34
-24, -1233.68, 120.79, -2922.58, -4752.96, -705.47, -5548.19, 91.78, -4044.82
-23, -1229.70, 116.79, -2918.20, -4725.47, -698.27, -5514.69, 90.61, -4021.84
-22, -1228.30, 108.09, -2897.01, -4713.02, -704.37, -5498.46, 83.46, -4013.77
-21, -1214.77, 114.02, -2884.65, -4680.12, -690.98, -5461.13, 89.07, -3985.36
-20, -1209.79, 122.58, -2858.99, -4663.22, -693.71, -5438.27, 89.54, -3967.10
-19, -1196.02, 144.95, -2847.23, -4624.75, -674.26, -5397.25, 97.74, -3933.75
-18, -1189.11, 138.38, -2831.50, -4614.72, -685.42, -5384.36, 88.76, -3924.65
-17, -1179.64, 143.21, -2825.17, -4578.49, -672.32, -5345.67, 91.22, -3895.93
-16, -1185.22, 128.32, -2808.34, -4570.82, -683.63, -5333.68, 78.92, -3892.67
-15, -1176.04, 122.35, -2803.27, -4534.25, -672.12, -5294.37, 80.65, -3866.09
-14, -1174.36, 111.04, -2779.19, -4526.00, -678.11, -5285.78, 74.12, -3856.50
-13, -1150.51, 127.87, -2763.14, -4481.64, -655.40, -5236.12, 85.74, -3821.14
-12, -1151.03, 120.52, -2747.52, -4475.74, -663.98, -5221.79, 77.16, -3810.03
-11, -1136.65, 126.58, -2732.86, -4440.20, -644.53, -5179.23, 88.56, -3776.53
-10, -1144.12, 113.12, -2721.62, -4430.00, -653.79, -5164.66, 79.48, -3768.37
-9, -1131.49, 108.38, -2707.94, -4397.24, -645.07, -5129.86, 81.90, -3743.51
-8, -1135.36, 104.67, -2691.46, -4380.32, -654.50, -5112.13, 75.41, -3730.15
-7, -1121.68, 115.76, -2672.06, -4343.86, -644.22, -5072.77, 80.27, -3701.38
-6, -1121.03, 119.00, -2658.63, -4324.32, -647.62, -5050.78, 72.51, -3686.36
-5, -1113.45, 131.38, -2638.65, -4294.24, -637.34, -5015.57, 80.82, -3656.83
-4, -1110.23, 124.03, -2627.38, -4272.58, -637.54, -4990.63, 76.67, -3635.42
-3, -1089.36, 119.54, -2608.38, -4243.75, -627.82, -4959.67, 76.02, -3612.82
-2, -1082.96, 118.40, -2596.69, -4215.74, -624.37, -4925.41, 75.91, -3587.05
-1, -1073.91, 121.06, -2581.74, -4192.40, -624.69, -4899.55, 71.17, -3567.90
0, -1071.41, 118.80, -2576.55, -4164.84, -617.78, -4868.99, 70.18, -3546.62
-29, -1068.91, 109.93, -2555.56, -4149.82, -622.92, -4848.52, 68.13, -3532.31
-28, -1059.09, 100.58, -2544.57, -4120.97, -616.48, -4812.55, 71.59, -3502.27
-27, -1061.53, 93.61, -2523.42, -4106.08, -619.72, -4791.19, 67.50, -3490.52
-26, -1057.30, 102.68, -2507.13, -4071.24, -602.85, -4748.11, 74.81, -3460.83
-25, -1052.79, 101.59, -2480.19, -4050.92, -601.04, -4731.15, 74.65, -3448.83
-24, -1036.85, 121.79, -2472.30, -4010.24, -588.05, -4686.02, 77.02, -3420.26
-23, -1030.50, 121.88, -2465.02, -3999.93, -604.10, -4671.80, 60.82, -3417.31
-22, -1006.45, 124.81, -2456.72, -3963.88, -593.71, -4630.52, 64.35, -3386.51
-21, -1007.84, 118.40, -2444.52, -3953.51, -609.26, -4616.24, 52.35, -3377.19
-20, -998.72, 128.70, -2435.62, -3917.61, -594.36, -4576.50, 59.52, -3346.35
-19, -996.19, 119.87, -2408.51, -3904.42, -602.80, -4562.33, 55.37, -3333.96
-18, -986.52, 120.86, -2396.31, -3863.68, -584.19, -4519.86, 62.18, -3301.26
-17, -981.24, 110.82, -2345.32, -3808.51, -585.86, -4451.10, 54.14, -3247.57
-16, -973.82, 109.57, -2327.51, -3771.59, -567.40, -4409.28, 64.69, -3213.60
-15, -979.92, 102.89, -2314.32, -3756.84, -575.13, -4393.97, 55.41, -3202.54
-14, -960.63, 114.02, -2292.69, -3719.37, -562.50, -4353.23, 61.44, -3175.24
-13, -958.31, 106.15, -2283.03, -3696.64, -564.09, -4327.16, 56.46, -3157.70
-12, -939.64, 109.70, -2261.37, -3663.14, -555.40, -4290.06, 63.81, -3129.96
-11, -927.89, 109.43, -2247.36, -3640.88, -555.06, -4259.24, 61.00, -3109.73
-10, -927.71, 103.80, -2181.22, -3544.43, -533.94, -4146.29, 62.47, -3023.41
-9, -901.11, 103.89, -2154.89, -3500.37, -523.77, -4086.35, 65.87, -2977.34
-8, -893.56, 102.04, -2132.07, -3483.21, -529.49, -4063.26, 62.88, -2962.61
-7, -888.37, 107.58, -2125.87, -3444.78, -512.79, -4024.39, 66.74, -2931.43
-6, -889.93, 88.29, -2103.99, -3428.96, -517.53, -4008.23, 63.95, -2920.01
-5, -872.59, 95.17, -2088.79, -3389.33, -500.88, -3961.85, 68.24, -2885.86
-4, -873.48, 93.23, -2076.39, -3377.12, -511.88, -3949.24, 56.28, -2878.08
-3, -858.62, 98.01, -2062.93, -3340.27, -494.71, -3906.82, 65.29, -2846.61
-2, -862.49, 90.48, -2047.24, -3330.97, -502.44, -3890.07, 60.37, -2834.11
-1, -847.00, 89.45, -2014.92, -3281.28, -488.32, -3829.55, 70.01, -2786.08
0, -829.32, 99.26, -2002.63, -3244.76, -469.63, -3790.79, 79.19, -2754.63
-29, -836.04, 85.50, -1989.13, -3237.65, -483.31, -3778.65, 69.49, -2748.03
-28, -820.76, 87.42, -1971.96, -3202.22, -470.88, -3738.24, 75.46, -2719.22
-27, -829.25, 78.52, -1959.22, -3187.18, -479.47, -3719.73, 64.89, -2708.87
-26, -812.22, 87.55, -1941.79, -3153.23, -465.90, -3679.68, 68.28, -2680.82
-25, -803.70, 88.47, -1926.76, -3135.32, -467.60, -3660.10, 60.91, -2669.09
-24, -793.78, 95.49, -1906.74, -3098.60, -447.82, -3621.68, 72.17, -2638.06
-23, -795.25, 86.50, -1897.73, -3083.31, -449.23, -3607.06, 65.33, -2624.21
-22, -786.78, 88.51, -1876.00, -3055.84, -438.70, -3574.33, 67.28, -2604.40
-21, -785.51, 81.58, -1866.93, -3033.96, -439.97, -3550.37, 61.94, -2588.06
-20, -777.71, 82.01, -1854.57, -3011.29, -438.03, -3523.57, 63.97, -2568.77
-19, -780.12, 82.54, -1854.86, -2991.29, -443.75, -3501.49, 56.53, -2554.22
-18, -776.19, 79.84, -1837.83, -2974.61, -445.25, -3480.61, 56.75, -2536.63
-17, -763.98, 74.65, -1807.50, -2937.20, -445.38, -3429.87, 50.98, -2501.56
-16, -753.48, 77.34, -1796.43, -2908.07, -433.29, -3398.63, 54.18, -2477.09
-15, -741.88, 71.75, -1774.42, -2896.47, -436.78, -3382.87, 51.25, -2464.10
-14, -735.01, 74.07, -1767.35, -2866.63, -422.05, -3349.21, 51.95, -2438.26
-13, -739.42, 65.71, -1749.90, -2853.31, -427.45, -3331.48, 45.53, -2429.61
-12, -732.53, 76.09, -1741.20, -2816.01, -414.40, -3296.23, 49.80, -2400.87
-11, -734.41, 69.92, -1722.20, -2805.03, -423.99, -3280.27, 44.97, -2391.41
-10, -722.70, 74.45, -1712.72, -2770.10, -409.06, -3241.63, 53.22, -2360.21
-9, -720.78, 61.42, -1696.12, -2762.00, -421.78, -3231.68, 41.91, -2353.79
-8, -698.29, 72.26, -1683.49, -2724.59, -400.32, -3187.60, 49.80, -2323.69
-7, -701.69, 66.00, -1663.95, -2713.70, -406.73, -3170.17, 43.81, -2313.56
-6, -683.16, 83.71, -1653.54, -2679.39, -387.51, -3130.50, 57.35, -2281.04
-5, -685.42, 78.10, -1640.66, -2674.94, -393.32, -3119.01, 55.03, -2269.51
-4, -678.26, 66.43, -1618.44, -2637.73, -388.79, -3070.75, 51.21, -2235.55
-3, -670.62, 68.11, -1610.98, -2607.40, -377.34, -3037.96, 54.18, -2214.30
-2, -669.50, 65.58, -1598.80, -2593.99, -388.36, -3022.85, 43.56, -2205.22
-1, -661.70, 64.19, -1582.62, -2562.22, -377.05, -2986.30, 54.20, -2175.79
0, -670.19, 55.30, -1574.57, -2548.48, -383.49, -2969.70, 48.84, -2167.43
-29, -666.35, 61.76, -1557.09, -2520.87, -373.54, -2940.84, 49.98, -2147.00
-28, -668.88, 60.28, -1546.41, -2502.50, -372.72, -2922.58, 47.39, -2133.23
-27, -612.88, 65.00, -1497.19, -2422.24, -354.48, -2831.12, 50.22, -2059.82
-26, -615.21, 58.29, -1481.81, -2410.68, -360.35, -2815.65, 42.65, -2054.26
-25, -613.40, 68.06, -1476.58, -2387.77, -356.69, -2785.76, 39.85, -2032.49
-24, -610.20, 57.04, -1450.00, -2341.43, -350.14, -2737.57, 45.08, -1994.16
-23, -612.48, 50.38, -1426.31, -2306.48, -346.30, -2701.81, 42.98, -1968.18
-22, -596.30, 53.73, -1401.10, -2296.82, -348.98, -2689.36, 40.64, -1958.06
-21, -574.22, 67.03, -1393.92, -2262.13, -331.14, -2649.04, 48.12, -1929.20
-20, -565.95, 58.52, -1374.83, -2251.71, -335.81, -2629.84, 45.98, -1917.80
-19, -558.35, 66.50, -1370.14, -2219.08, -316.90, -2595.55, 54.87, -1891.36
-18, -566.71, 49.82, -1365.67, -2219.08, -331.63, -2597.38, 38.36, -1895.90
-17, -556.00, 60.04, -1340.75, -2187.81, -329.93, -2558.63, 35.56, -1865.57
-16, -550.37, 44.75, -1327.94, -2160.56, -327.14, -2517.83, 29.06, -1841.49
-15, -533.78, 66.83, -1284.85, -2088.57, -314.44, -2443.85, 32.83, -1782.55
-14, -531.35, 62.58, -1275.44, -2075.56, -320.30, -2427.06, 30.93, -1770.73
-13, -518.36, 45.06, -1262.94, -2046.59, -316.72, -2388.46, 25.55, -1746.99
-12, -513.98, 40.59, -1249.42, -2030.30, -314.98, -2369.22, 23.72, -1732.98
-11, -515.83, 43.14, -1223.74, -1995.21, -305.08, -2328.47, 27.27, -1700.14
-10, -510.60, 39.36, -1222.13, -1978.67, -298.17, -2311.10, 30.96, -1684.54
-9, -502.87, 51.23, -1200.87, -1965.75, -298.75, -2294.12, 32.23, -1672.54
-8, -489.28, 63.99, -1198.81, -1938.66, -286.95, -2264.68, 35.00, -1649.78
-7, -488.83, 57.22, -1185.25, -1929.78, -296.97, -2254.06, 28.77, -1642.92
-6, -491.27, 63.10, -1179.12, -1900.99, -289.57, -2220.53, 28.83, -1621.02
-5, -488.70, 49.22, -1161.78, -1897.84, -297.37, -2217.56, 21.84, -1619.81
-4, -470.57, 50.29, -1154.94, -1870.62, -282.28, -2185.15, 28.10, -1596.61
-3, -467.17, 43.65, -1139.54, -1866.08, -288.94, -2178.62, 21.73, -1593.23
-2, -458.17, 55.70, -1128.43, -1833.00, -267.95, -2143.04, 34.73, -1562.39
-1, -468.83, 53.44, -1110.99, -1798.53, -261.07, -2104.46, 34.09, -1535.30
0, -472.40, 33.73, -1099.21, -1796.14, -274.10, -2101.64, 25.91, -1534.49
-29, -461.76, 39.52, -1090.83, -1766.39, -257.60, -2071.22, 34.85, -1511.63
-28, -462.61, 36.46, -1076.46, -1764.51, -263.04, -2063.54, 28.88, -1506.82
-27, -440.28, 53.69, -1064.41, -1736.91, -246.56, -2033.20, 39.54, -1478.01
-26, -439.10, 49.33, -1057.08, -1730.25, -256.96, -2026.36, 31.67, -1475.13
-25, -427.88, 53.55, -1044.21, -1706.20, -242.58, -1997.69, 34.42, -1454.72
-24, -437.00, 44.12, -1041.23, -1698.93, -250.34, -1985.93, 24.23, -1449.87
-23, -428.84, 44.44, -1032.58, -1675.40, -244.68, -1957.81, 33.19, -1429.66
-22, -430.07, 46.96, -1019.44, -1665.50, -247.99, -1944.11, 34.65, -1415.47
-21, -416.06, 51.05, -1005.67, -1644.55, -237.60, -1919.39, 46.83, -1395.29
-20, -414.96, 44.82, -1001.92, -1631.50, -242.70, -1905.11, 42.13, -1384.27
-19, -419.94, 31.31, -992.75, -1619.94, -244.37, -1894.24, 36.37, -1378.14
-18, -422.83, 24.90, -985.04, -1605.79, -240.95, -1875.49, 32.05, -1367.99
-17, -414.33, 37.64, -967.92, -1590.46, -233.93, -1857.47, 32.50, -1354.31
-16, -403.83, 48.41, -966.89, -1569.11, -228.95, -1838.36, 34.06, -1337.89
-15, -411.20, 49.93, -956.79, -1546.14, -224.95, -1807.81, 30.96, -1317.23
-14, -405.35, 38.20, -947.54, -1545.29, -238.18, -1803.52, 20.45, -1317.30
-13, -395.80, 39.81, -941.97, -1525.46, -232.19, -1783.27, 21.08, -1301.09
-12, -385.70, 33.95, -922.05, -1516.90, -235.34, -1771.40, 21.08, -1293.79
-11, -368.56, 36.57, -919.91, -1485.56, -216.79, -1741.09, 30.51, -1268.33
-10, -379.76, 34.76, -909.85, -1484.58, -226.15, -1737.67, 23.02, -1268.53
-9, -374.93, 45.04, -904.20, -1460.80, -210.84, -1708.77, 29.28, -1246.22
-8, -379.71, 36.70, -895.86, -1463.61, -224.01, -1711.45, 19.24, -1251.14
-7, -383.58, 32.16, -876.12, -1438.49, -220.41, -1680.40, 21.03, -1225.61
-6, -370.97, 26.15, -873.04, -1412.94, -205.68, -1651.73, 29.55, -1206.93
-5, -367.62, 22.98, -860.70, -1414.46, -215.56, -1650.90, 21.57, -1207.64
-4, -343.41, 43.00, -850.68, -1389.09, -199.65, -1622.98, 31.34, -1186.50
-3, -344.26, 33.01, -842.75, -1384.38, -207.09, -1616.88, 26.04, -1181.94
-2, -345.94, 40.14, -840.83, -1364.53, -191.35, -1590.53, 31.49, -1160.39
-1, -348.75, 21.97, -821.94, -1333.93, -202.73, -1555.12, 15.62, -1138.17
0, -334.72, 29.59, -803.86, -1315.27, -193.97, -1540.62, 24.34, -1120.90
-29, -335.34, 32.61, -797.02, -1301.09, -195.15, -1524.05, 26.17, -1107.66
-28, -323.94, 42.38, -783.67, -1287.59, -186.48, -1509.06, 33.82, -1092.06
-27, -326.45, 40.64, -779.49, -1274.34, -182.46, -1488.63, 34.24, -1075.70
-26, -325.71, 33.84, -769.50, -1266.23, -184.74, -1470.86, 33.64, -1066.47
-25, -321.53, 28.97, -770.26, -1250.56, -180.24, -1455.84, 32.43, -1055.85
-24, -325.49, 29.24, -760.52, -1248.19, -184.47, -1453.82, 27.02, -1054.67
-23, -326.54, 30.58, -762.98, -1231.45, -180.24, -1437.06, 26.20, -1044.34
-22, -331.90, 26.22, -750.53, -1227.60, -190.53, -1435.09, 16.96, -1045.84
-21, -325.80, 29.12, -750.28, -1207.49, -182.12, -1413.84, 16.12, -1033.12
-20, -326.72, 23.40, -735.98, -1209.01, -188.27, -1408.36, 10.10, -1033.37
-19, -319.21, 21.26, -735.31, -1183.97, -174.88, -1388.74, 13.68, -1016.33
-18, -313.80, 18.24, -724.96, -1189.72, -185.30, -1389.65, 9.70, -1015.64
-17, -291.00, 44.46, -719.03, -1163.07, -168.49, -1359.75, 21.03, -990.34
-16, -288.96, 32.70, -708.17, -1164.21, -178.39, -1358.90, 16.41, -989.38
-15, -290.93, 30.20, -694.69, -1146.20, -176.49, -1331.81, 18.62, -968.26
-14, -287.29, 34.82, -685.51, -1118.15, -160.33, -1303.44, 30.96, -947.24
-13, -292.29, 21.01, -683.76, -1121.83, -168.13, -1306.62, 18.06, -949.19
-12, -279.89, 32.52, -672.99, -1095.97, -153.89, -1283.44, 25.53, -930.84
-11, -285.59, 27.09, -669.21, -1092.66, -158.85, -1280.15, 17.97, -932.60
-10, -269.99, 29.46, -662.53, -1072.70, -144.26, -1258.16, 24.74, -918.03
-9, -271.98, 20.36, -659.44, -1073.96, -154.23, -1257.37, 20.90, -917.09
-8, -276.33, 23.89, -652.54, -1057.95, -150.09, -1240.28, 23.78, -904.91
-7, -280.36, 26.13, -645.63, -1055.83, -153.11, -1232.27, 20.47, -898.00
-6, -266.88, 31.09, -633.56, -1041.21, -145.71, -1213.99, 24.81, -884.10
-5, -273.38, 19.69, -632.53, -1033.19, -146.76, -1207.71, 21.37, -876.30
-4, -269.11, 16.58, -613.51, -1017.67, -140.61, -1188.29, 27.45, -862.93
-3, -263.37, 21.97, -604.06, -1000.62, -129.53, -1167.88, 32.79, -845.92
-2, -262.52, 17.17, -599.70, -998.50, -131.79, -1161.75, 27.49, -844.65
-1, -257.80, 19.16, -603.09, -988.42, -131.16, -1158.33, 20.83, -841.92
0, -236.82, 29.10, -591.07, -991.97, -136.30, -1157.26, 17.66, -842.26
-29, -226.11, 35.00, -597.04, -977.82, -127.14, -1141.03, 21.61, -828.82
-28, -228.97, 27.25, -591.58, -981.76, -132.21, -1141.86, 20.12, -827.57
-27, -224.48, 30.44, -584.01, -962.67, -115.11, -1112.83, 28.61, -803.97
-26, -231.23, 18.84, -577.61, -968.30, -125.64, -1112.89, 19.54, -808.51
-25, -228.05, 17.46, -580.90, -956.25, -120.19, -1102.81, 15.80, -802.07
-24, -226.00, 2.01, -564.34, -964.08, -136.50, -1114.55, 5.95, -808.48
-23, -214.08, 12.16, -561.19, -945.43, -125.30, -1093.98, 8.67, -795.45
-22, -221.66, -3.24, -541.23, -922.12, -137.95, -1071.01, -1.18, -780.79
-21, -212.90, 7.78, -539.57, -894.40, -118.91, -1046.04, 7.35, -761.97
-20, -218.33, 4.11, -533.29, -897.15, -126.51, -1047.34, 1.45, -763.02
-19, -204.05, 20.03, -525.24, -876.41, -108.29, -1023.53, 14.13, -744.20
-18, -206.24, 11.53, -517.98, -875.23, -120.27, -1025.56, 9.01, -746.06
-17, -205.81, 5.92, -508.46, -854.44, -108.74, -996.64, 21.79, -722.52
-16, -219.09, -2.46, -511.83, -855.71, -119.07, -998.25, 15.24, -720.69
-15, -208.90, -1.10, -508.03, -841.54, -114.78, -984.15, 13.52, -712.42
-14, -209.12, -0.96, -504.17, -837.88, -114.04, -976.30, 14.26, -703.97
-13, -202.69, 9.43, -495.52, -824.31, -105.66, -963.18, 17.17, -695.97
-12, -200.85, 11.11, -489.95, -814.01, -109.52, -954.96, 17.39, -687.61
-11, -196.56, 11.33, -474.30, -803.57, -106.28, -939.02, 25.53, -674.60
-10, -201.17, 12.79, -474.82, -793.42, -107.42, -927.17, 23.18, -668.41
-9, -199.80, 10.73, -470.01, -792.77, -112.74, -929.41, 19.94, -668.83
-8, -199.11, 9.50, -473.41, -784.37, -112.41, -917.56, 18.26, -661.12
-7, -198.80, -0.76, -465.23, -786.16, -120.34, -918.75, 12.96, -661.25
-6, -206.82, 0.56, -473.57, -772.41, -113.95, -904.84, 12.87, -653.32
-5, -207.60, -5.43, -460.78, -774.87, -122.40, -909.38, 5.21, -656.05
-4, -187.31, 9.10, -455.30, -751.58, -105.95, -889.89, 11.49, -642.03
-3, -187.44, 7.64, -442.30, -757.57, -108.36, -890.96, 12.92, -641.45
-2, -174.81, 14.66, -439.50, -737.65, -91.60, -867.05, 22.02, -621.87
-1, -183.55, 1.63, -431.48, -743.53, -101.28, -865.97, 18.46, -619.88
0, -198.22, -0.16, -425.49, -729.99, -103.53, -850.57, 9.28, -609.93
-29, -185.41, 9.10, -419.90, -709.76, -91.22, -827.66, 19.96, -588.34
-28, -182.61, -7.47, -411.61, -712.77, -104.11, -828.98, 14.31, -591.34
-27, -172.00, 2.28, -415.83, -692.39, -91.89, -804.60, 22.04, -574.53
-26, -182.86, -5.05, -410.91, -696.79, -104.85, -808.64, 17.57, -577.08
-25, -171.88, 2.48, -400.68, -676.48, -84.20, -783.88, 34.06, -556.16
-24, -185.12, -1.99, -392.12, -675.36, -89.88, -785.37, 31.09, -557.14
-23, -182.43, -5.70, -377.34, -647.02, -82.59, -753.32, 31.85, -538.57
-22, -166.77, 4.63, -369.47, -637.52, -73.36, -741.68, 30.31, -531.23
-21, -167.01, 4.02, -370.64, -632.35, -73.00, -735.46, 28.88, -528.31
-20, -159.66, 1.77, -368.96, -627.23, -78.19, -731.28, 28.61, -527.88
-19, -159.14, 6.01, -375.42, -621.51, -84.85, -727.50, 21.19, -524.28
-18, -161.49, 3.71, -370.08, -621.40, -94.08, -727.12, 17.57, -526.56
-17, -159.61, 7.38, -367.53, -606.58, -88.98, -710.67, 21.59, -513.80
-16, -162.45, -5.57, -355.80, -600.46, -84.38, -702.00, 16.18, -506.69
-15, -158.30, -2.79, -355.88, -587.87, -75.86, -682.98, 18.62, -493.15
-14, -161.83, -14.91, -349.89, -590.62, -89.81, -683.29, 9.32, -498.56
-13, -151.01, -1.86, -354.99, -571.76, -80.15, -666.39, 12.72, -484.38
-12, -159.14, -1.59, -345.56, -580.14, -90.68, -675.07, 7.62, -491.09
-11, -151.63, 4.94, -353.58, -562.50, -81.79, -656.36, 11.98, -476.70
-10, -149.24, -5.74, -346.14, -571.29, -97.05, -662.75, 6.64, -480.76
-9, -157.51, 0.29, -339.63, -554.48, -94.59, -638.92, 6.26, -470.59
-8, -148.19, 13.28, -333.64, -536.53, -79.46, -625.76, 9.34, -460.22
-7, -149.76, 10.86, -329.15, -540.78, -87.06, -637.58, 0.54, -468.69
-6, -143.16, 16.23, -327.83, -523.81, -73.00, -619.08, 9.54, -452.85
-5, -145.26, 1.68, -327.01, -531.48, -83.98, -618.83, 7.06, -450.70
-4, -141.82, 4.83, -323.90, -513.73, -72.40, -600.17, 17.57, -435.57
-3, -151.59, -2.03, -322.85, -518.38, -78.95, -600.86, 11.31, -437.60
-2, -141.11, -0.54, -316.84, -510.63, -73.31, -589.04, 13.63, -432.62
-1, -136.88, -8.02, -310.87, -509.87, -76.38, -590.96, 8.69, -433.07
0, -139.21, -6.03, -300.23, -498.33, -67.26, -580.03, 18.19, -422.65
-29, -146.67, -1.59, -298.82, -492.59, -66.16, -573.14, 20.09, -415.81
-28, -133.46, 6.86, -295.24, -489.30, -67.30, -574.78, 16.94, -415.56
-27, -128.81, 16.03, -300.50, -483.49, -67.64, -568.81, 13.03, -412.68
-26, -118.60, 22.46, -299.54, -484.05, -75.79, -574.37, 4.94, -419.16
-25, -109.39, 26.13, -303.49, -479.06, -74.81, -564.90, 3.00, -414.31
-24, -118.75, 20.92, -300.85, -477.23, -86.57, -566.21, -2.46, -417.93
-23, -125.24, 27.00, -302.87, -465.77, -81.79, -550.28, 2.30, -405.15
-22, -124.77, 22.35, -306.00, -473.30, -93.88, -555.42, -7.09, -413.98
-21, -115.85, 27.02, -311.00, -459.69, -87.84, -542.10, -6.66, -403.36
-20, -120.90, 26.08, -302.28, -452.02, -83.10, -530.50, -1.32, -390.04
-19, -123.25, 35.36, -299.67, -441.89, -97.74, -522.43, -12.47, -388.79
-18, -124.83, 26.11, -298.69, -454.25, -111.02, -530.63, -25.46, -398.31
-17, -111.54, 37.33, -293.86, -430.25, -90.82, -507.74, -13.39, -379.82
-16, -112.88, 24.88, -281.01, -433.40, -93.94, -510.00, -11.91, -380.29
-15, -111.45, 35.38, -276.38, -422.29, -91.33, -498.51, -11.89, -372.20
-14, -101.57, 45.80, -273.14, -407.58, -78.70, -484.50, -4.72, -358.57
-13, -110.57, 30.98, -273.99, -418.25, -88.71, -491.96, -14.17, -366.88
-12, -110.62, 24.52, -273.47, -406.51, -80.22, -479.09, -10.55, -358.70
-11, -111.18, 21.28, -267.95, -401.01, -79.30, -472.45, -9.75, -355.50
-10, -109.37, 30.47, -264.18, -400.43, -77.09, -469.39, -9.97, -349.56
-9, -92.27, 33.17, -246.85, -386.28, -62.56, -453.14, 0.42, -330.40
-8, -97.74, 25.35, -246.85, -381.43, -65.33, -451.57, 0.29, -327.83
-7, -99.04, 24.70, -251.05, -379.53, -67.23, -450.14, -1.81, -326.42
-6, -95.44, 23.45, -242.90, -377.79, -73.43, -448.69, -1.79, -327.05
-5, -91.04, 27.09, -245.31, -369.81, -71.10, -440.93, -2.26, -318.89
-4, -98.46, 21.28, -244.04, -377.66, -80.58, -449.36, -13.84, -327.90
-3, -99.49, 12.07, -229.51, -371.13, -75.12, -438.12, -8.78, -319.21
-2, -93.10, 13.90, -228.17, -356.78, -57.31, -419.79, 1.14, -304.41
-1, -85.67, 21.44, -213.33, -342.54, -47.23, -408.34, 8.90, -291.18
0, -84.38, 16.61, -210.67, -348.66, -58.27, -411.47, 1.90, -293.03
-29, -84.58, 27.31, -210.11, -330.09, -44.08, -388.14, 11.22, -275.28
-28, -89.83, 24.81, -197.79, -335.34, -49.26, -386.64, 12.63, -275.28
-27, -89.76, 9.25, -201.95, -332.28, -53.04, -375.13, 6.21, -272.38
-26, -75.59, 29.01, -196.02, -312.21, -38.53, -357.25, 16.54, -255.59
-25, -83.39, 21.64, -198.01, -320.14, -55.75, -367.13, 4.83, -266.32
-24, -75.44, 28.88, -196.40, -304.94, -45.87, -351.10, 7.40, -257.92
-23, -78.86, 17.10, -195.51, -317.69, -55.14, -367.69, -0.04, -269.29
-22, -91.60, 1.05, -201.41, -316.79, -58.67, -371.17, -4.36, -272.83
-21, -71.41, 25.62, -179.71, -297.66, -56.64, -352.11, -3.17, -262.92
-20, -68.73, 23.09, -182.93, -297.12, -55.30, -350.92, -5.48, -263.62
-19, -69.54, 17.75, -184.74, -297.86, -54.47, -353.56, -5.32, -266.48
-18, -75.77, 11.51, -185.16, -293.46, -48.64, -348.69, -2.62, -260.67
-17, -75.55, 12.65, -178.77, -293.17, -52.12, -350.23, -7.06, -264.98
-16, -70.97, 15.00, -180.80, -282.68, -44.19, -337.98, -3.02, -255.41
-15, -64.62, 13.03, -172.35, -284.67, -46.25, -341.11, -1.72, -256.29
-14, -66.74, 24.92, -173.61, -271.77, -32.54, -324.90, 9.19, -242.09
-13, -70.68, 20.61, -168.73, -273.97, -41.75, -329.26, 7.42, -245.67
-12, -65.80, 16.74, -172.31, -258.03, -29.10, -310.49, 14.75, -228.64
-11, -68.93, 12.83, -155.70, -263.12, -34.51, -310.44, 18.62, -226.45
-10, -62.25, 21.88, -163.37, -248.57, -24.43, -292.79, 21.66, -213.66
-9, -53.22, 21.77, -162.63, -253.67, -28.34, -293.57, 16.54, -215.54
-8, -55.72, 21.08, -162.59, -266.61, -44.86, -310.38, 4.27, -231.27
-7, -44.26, 31.27, -161.18, -246.25, -34.29, -291.98, 10.26, -218.62
-6, -59.21, 16.14, -156.19, -253.54, -43.12, -296.45, 5.23, -224.37
-5, -56.82, 19.24, -158.54, -242.23, -30.82, -288.92, 9.92, -212.65
-4, -62.58, 7.82, -159.75, -253.49, -47.79, -300.90, -2.75, -224.05
-3, -52.06, 12.07, -157.92, -238.22, -35.94, -289.52, 3.53, -212.97
-2, -51.25, 5.36, -155.50, -243.23, -41.51, -293.70, -0.29, -217.21
-1, -40.77, 22.46, -153.56, -233.35, -31.94, -278.39, 6.84, -205.59
0, -47.72, 17.93, -155.86, -242.27, -41.06, -283.76, -2.66, -211.36
-29, -46.67, 21.95, -152.86, -236.10, -34.20, -275.64, -0.13, -207.29
-28, -59.14, 16.09, -157.36, -240.68, -43.63, -279.69, -6.28, -209.12
-27, -58.32, 18.02, -148.73, -229.46, -39.29, -271.48, 1.61, -204.36
-26, -58.90, 13.93, -152.19, -227.27, -42.13, -268.58, 1.90, -201.03
-25, -54.36, 3.08, -143.79, -226.87, -40.28, -264.38, 7.98, -195.13
-24, -56.42, -4.22, -147.07, -223.03, -34.58, -255.57, 9.81, -186.61
-23, -58.63, 0.60, -139.21, -224.77, -37.24, -255.88, 7.55, -186.48
-22, -51.07, 11.78, -138.71, -212.50, -24.39, -244.17, 14.44, -176.22
-21, -46.54, 16.90, -126.40, -211.94, -19.36, -244.68, 17.55, -178.68
-20, -45.17, 28.34, -135.21, -202.40, -13.32, -242.58, 16.94, -170.95
-19, -52.21, 16.38, -130.60, -211.58, -23.85, -252.42, 11.69, -181.92
-18, -45.11, 8.05, -132.93, -203.04, -16.72, -235.34, 17.14, -170.63
-17, -56.17, 1.92, -131.67, -214.20, -34.67, -248.13, 10.59, -177.85
-16, -46.04, 16.96, -131.88, -201.52, -28.25, -235.23, 17.72, -165.87
-15, -45.06, 8.54, -119.54, -207.38, -35.03, -239.01, 18.53, -169.99
-14, -41.86, 17.72, -128.19, -189.63, -18.73, -225.75, 24.14, -157.11
-13, -49.89, 2.75, -128.01, -201.90, -35.56, -238.40, 13.08, -169.76
-12, -36.03, 6.71, -122.17, -185.09, -17.97, -217.46, 24.07, -153.98
-11, -38.65, 3.73, -123.34, -196.54, -29.24, -225.95, 14.98, -162.56
-10, -31.92, 16.09, -121.39, -183.13, -20.18, -212.30, 19.62, -150.81
-9, -47.90, 11.31, -120.65, -194.12, -30.47, -222.20, 10.26, -159.79
-8, -42.62, 24.03, -121.71, -182.21, -19.51, -206.24, 14.39, -151.41
-7, -37.33, 14.62, -122.58, -178.19, -21.84, -203.11, 7.64, -150.09
-6, -43.72, 4.11, -123.85, -184.78, -31.67, -209.12, 4.02, -152.39
-5, -40.39, 12.00, -113.79, -174.88, -20.63, -195.15, 14.75, -140.32
-4, -41.37, 9.01, -115.02, -174.30, -21.28, -198.84, 13.37, -141.11
-3, -39.88, 13.81, -110.84, -173.40, -12.94, -200.05, 12.76, -139.09
-2, -30.80, 11.94, -106.17, -170.77, -14.93, -199.22, 13.81, -138.51
-1, -26.38, 13.77, -111.69, -169.52, -18.15, -193.90, 11.69, -135.76
0, -29.64, 20.32, -100.74, -170.57, -17.88, -189.48, 18.89, -133.93
-29, -32.12, 22.46, -106.04, -160.53, -8.09, -179.84, 22.02, -128.25
-28, -42.24, 12.83, -101.97, -166.63, -14.17, -184.45, 14.55, -135.72
-27, -39.56, 11.69, -105.81, -158.65, -2.44, -180.18, 18.69, -127.49
-26, -48.46, -4.00, -103.51, -169.58, -20.56, -189.86, 8.74, -137.75
-25, -35.38, 6.15, -101.83, -156.73, -9.21, -176.42, 14.82, -126.20
-24, -25.15, 6.06, -95.02, -160.98, -15.00, -185.54, 12.36, -132.70
-23, -26.82, 11.73, -98.46, -145.93, 0.80, -167.53, 19.16, -120.65
-22, -38.36, 7.93, -95.84, -159.61, -9.86, -177.58, 12.07, -129.44
-21, -25.86, 14.33, -96.72, -140.75, -1.30, -162.47, 21.06, -116.43
-20, -39.56, 5.57, -95.33, -155.52, -18.98, -174.37, 12.90, -122.53
-19, -36.63, 10.13, -91.26, -144.03, -14.17, -163.75, 18.35, -113.77
-18, -29.64, 21.35, -93.68, -129.17, -2.68, -151.12, 23.13, -102.66
-17, -36.32, 15.91, -99.26, -151.70, -20.81, -163.15, 8.49, -116.16
-16, -28.74, 16.27, -108.09, -145.62, -20.56, -161.83, 7.02, -113.59
-15, -26.42, 9.01, -102.17, -155.86, -36.59, -175.17, -3.38, -126.00
-14, -30.31, 11.89, -93.72, -146.07, -26.15, -171.75, 1.30, -124.21
-13, -26.38, 5.68, -88.85, -135.25, -18.44, -162.77, 4.83, -119.27
-12, -33.04, -0.34, -86.70, -138.09, -24.83, -163.64, 1.16, -118.29
-11, -35.67, 2.06, -87.22, -137.57, -24.10, -157.83, 3.04, -114.40
-10, -30.67, 10.13, -74.10, -132.14, -18.75, -152.60, 10.73, -112.56
-9, -28.10, 20.54, -80.56, -126.31, -17.23, -143.43, 9.07, -107.44
-8, -33.62, 13.19, -80.24, -130.47, -17.66, -145.51, 8.25, -107.96
-7, -38.91, 8.47, -86.97, -123.11, -17.10, -141.84, 4.02, -105.52
-6, -37.37, 13.75, -74.99, -124.57, -21.57, -143.74, 2.37, -109.37
-5, -28.19, 25.66, -80.00, -112.61, -9.86, -131.90, 9.54, -98.30
-4, -26.87, 14.84, -74.57, -122.15, -17.79, -142.51, 6.33, -105.05
-3, -18.98, 13.46, -81.18, -107.91, -5.90, -128.32, 12.32, -92.76
-2, -21.61, -12.36, -80.00, -124.90, -22.11, -145.58, 2.59, -105.79
-1, -16.09, 0.47, -79.44, -112.99, -9.21, -132.41, 11.94, -92.16
0, -27.65, 0.34, -76.60, -124.16, -21.50, -143.14, 5.23, -100.90
-29, -24.03, 10.95, -76.17, -117.73, -23.76, -140.08, 5.39, -98.53
-28, -28.95, 17.55, -81.27, -107.11, -13.86, -129.82, 6.97, -90.17
-27, -36.32, -4.00, -75.46, -118.93, -24.99, -145.73, -3.96, -106.24
-26, -22.58, 9.34, -67.39, -107.82, -9.72, -128.08, 4.52, -94.19
-25, -30.93, 9.68, -65.02, -116.83, -19.58, -138.78, -2.32, -101.54
-24, -17.68, 19.33, -59.99, -100.14, -1.70, -120.86, 14.33, -83.62
-23, -21.64, 10.66, -59.43, -107.53, -9.75, -125.19, 9.10, -86.68
-22, -13.39, 9.25, -60.93, -100.27, -5.16, -116.52, 12.09, -80.09
-21, -17.66, -1.27, -66.47, -109.55, -14.31, -124.72, 3.76, -87.62
-20, -8.56, -0.76, -61.69, -103.85, -8.74, -116.74, 8.69, -84.76
-19, -14.46, -7.13, -62.96, -108.14, -14.44, -119.20, 5.79, -86.79
-18, -16.67, 8.49, -57.15, -104.52, -10.08, -114.69, 9.81, -85.52
-17, -12.85, 17.10, -59.34, -103.87, -9.23, -114.44, 10.13, -83.64
-16, -4.76, 11.35, -60.33, -105.05, -11.69, -119.54, 3.46, -92.29
-15, -8.76, 17.75, -65.38, -102.71, -13.30, -123.25, -4.63, -98.28
-14, -14.89, 15.22, -59.88, -107.02, -15.87, -125.17, -5.19, -100.92
-13, -18.35, 13.23, -64.80, -101.01, -10.15, -116.18, -5.34, -96.74
-12, -24.90, 5.48, -59.70, -104.36, -17.64, -120.81, -10.08, -101.50
-11, -17.17, 4.40, -62.07, -95.64, -7.73, -107.13, -1.74, -86.46
-10, -18.64, 0.92, -60.77, -85.36, -5.90, -102.75, 4.92, -76.22
-9, -18.44, -2.32, -51.72, -95.51, -12.74, -107.11, 3.13, -81.43
-8, -5.83, 12.32, -58.00, -78.43, 4.18, -88.36, 12.38, -66.38
-7, -10.33, 6.39, -58.63, -92.92, -8.65, -103.85, -0.87, -79.48
-6, -10.84, 13.75, -66.47, -81.20, 0.92, -92.87, 1.27, -72.17
-5, -17.34, 8.92, -62.99, -99.35, -16.70, -109.93, -6.30, -83.46
-4, -13.14, 21.52, -64.33, -83.42, -8.81, -95.49, -0.20, -72.31
-3, -19.45, 9.25, -58.38, -96.05, -20.88, -110.60, -6.66, -83.26
-2, 3.11, 15.83, -54.02, -79.91, -5.74, -93.90, 4.90, -69.94
-1, -1.79, 5.95, -47.99, -92.69, -12.52, -105.01, -1.50, -78.23
0, -5.97, 13.77, -45.73, -79.08, 0.13, -93.52, 6.28, -68.17
-29, -20.94, 2.59, -48.88, -89.92, -12.65, -103.44, -2.97, -77.47
-28, -17.77, 1.07, -48.66, -80.38, -6.08, -93.97, 0.16, -72.35
-27, -24.56, -1.10, -48.57, -86.12, -13.57, -99.53, -1.36, -74.77
-26, -16.90, -0.47, -48.32, -77.25, -5.30, -87.24, 7.29, -68.08
-25, -13.37, -2.70, -49.78, -81.81, -9.21, -93.27, 5.86, -69.96
-24, -6.15, 13.43, -40.68, -76.69, -4.34, -85.34, 11.67, -65.42
-23, -9.95, 15.18, -45.93, -74.86, -3.96, -89.23, 9.03, -65.65
-22, -8.16, 15.85, -41.57, -75.03, -3.96, -90.14, 8.69, -68.06
-21, -9.57, 16.61, -45.53, -73.31, -0.09, -86.99, 9.70, -63.28
-20, -4.85, 6.06, -38.49, -78.41, -2.93, -90.82, 13.01, -64.69
-19, -1.61, 5.99, -43.09, -70.36, 1.34, -82.70, 13.32, -61.22
-18, -6.01, 1.21, -40.57, -77.99, -4.60, -90.48, 9.63, -66.74
-17, -6.37, 12.36, -42.29, -71.17, 4.36, -80.09, 16.52, -56.13
-16, -18.73, 11.96, -39.34, -77.83, -5.77, -86.14, 12.45, -64.73
-15, -18.19, 10.17, -44.66, -66.54, 6.48, -71.35, 17.46, -52.10
-14, -18.33, -12.52, -34.51, -76.02, 0.92, -79.10, 16.94, -55.66
-13, -15.13, -7.69, -43.94, -62.29, 8.20, -65.27, 17.77, -47.23
-12, -16.29, -12.63, -35.96, -75.17, -3.93, -84.53, 9.14, -58.94
-11, -2.08, 6.41, -35.16, -60.06, 10.84, -71.32, 18.93, -45.60
-10, -11.87, 6.46, -38.56, -76.09, -12.36, -92.29, 0.94, -65.49
-9, -3.84, 15.27, -36.57, -61.38, -0.42, -80.73, 6.41, -58.25
-8, -11.38, 7.51, -32.30, -74.99, -10.13, -89.45, -0.80, -65.74
-7, -10.80, 8.14, -34.51, -61.02, 5.39, -69.42, 10.04, -48.97
-6, -15.13, 1.63, -32.70, -71.01, -4.96, -80.98, 3.55, -58.14
-5, -5.99, 13.72, -30.98, -59.46, 9.86, -72.08, 12.27, -48.37
-4, -12.32, 0.49, -29.88, -67.75, 4.52, -78.37, 8.36, -53.55
-3, 2.57, 7.60, -31.85, -58.00, 9.41, -72.04, 11.06, -51.12
-2, -3.42, -3.38, -36.32, -70.70, -3.69, -81.34, 2.08, -60.24
-1, -5.41, -10.39, -33.21, -66.76, 3.11, -71.66, 9.41, -54.05
0, -14.46, -8.63, -32.28, -67.59, -0.51, -74.34, 9.14, -55.19
-29, -15.02, -3.11, -28.32, -65.04, 1.81, -76.42, 10.04, -55.28
-28, -25.12, 2.32, -28.45, -62.18, 4.31, -72.75, 12.45, -50.31
-27, -12.45, 9.99, -28.86, -60.10, 0.83, -66.43, 13.28, -45.87
-26, -9.01, 12.47, -33.51, -53.22, 7.69, -58.25, 13.05, -41.02
-25, -10.66, 4.18, -31.07, -59.97, -2.48, -65.96, 8.16, -45.84
-24, -13.30, -6.08, -44.73, -52.28, -0.42, -62.65, 5.57, -42.00
-23, -17.57, -14.46, -34.00, -60.06, -11.00, -69.65, 0.38, -51.07
-22, -5.45, -6.53, -33.04, -47.30, 7.17, -52.41, 12.67, -33.68
-21, -8.52, -16.32, -29.15, -56.01, -6.73, -62.92, 3.26, -43.68
-20, -6.66, -1.97, -32.92, -46.56, 7.11, -52.62, 11.33, -32.30
-19, -13.14, 0.16, -28.77, -58.74, -4.67, -65.60, 2.39, -43.83
-18, -11.11, 7.31, -36.68, -46.58, 7.98, -50.85, 7.15, -32.52
-17, -19.83, -0.16, -32.99, -59.90, -6.39, -64.44, -1.81, -45.64
-16, -3.51, 16.47, -32.83, -43.63, 7.15, -49.29, 5.83, -32.95
-15, -9.77, 2.75, -29.68, -54.31, -6.06, -59.46, -2.62, -40.21
-14, -5.95, 7.55, -31.76, -42.27, 2.35, -47.65, 5.21, -30.02
-13, -19.22, -2.46, -28.68, -54.74, -7.80, -60.77, -1.88, -39.20
-12, -17.17, 2.01, -31.47, -44.30, 5.50, -48.15, 2.41, -30.20
-11, -27.56, -10.04, -31.49, -52.50, -2.88, -56.55, -2.66, -37.73
-10, -12.65, -8.99, -28.54, -44.86, 3.20, -49.93, 4.49, -31.76
-9, -11.27, -7.69, -32.03, -47.41, -6.86, -59.05, 1.48, -36.46
-8, -4.56, 3.24, -26.82, -43.54, 0.45, -48.30, 10.28, -29.50
-7, -9.34, 3.40, -26.98, -43.45, -2.37, -48.06, 9.34, -29.62
-6, -9.12, 9.28, -26.87, -41.26, -1.18, -47.83, 7.96, -30.55
-5, -17.34, 7.33, -34.91, -44.66, -4.83, -49.49, 3.13, -33.08
-4, -18.13, -7.31, -30.78, -45.78, -13.52, -53.76, 1.54, -37.93
-3, -21.28, -11.22, -34.71, -41.75, -13.77, -54.20, -0.58, -37.60
-2, -21.35, -21.44, -30.69, -47.94, -17.43, -56.97, -3.80, -41.93
-1, -24.12, -10.64, -32.43, -48.97, -17.93, -59.90, -11.89, -46.49
0, -19.49, -9.95, -32.66, -47.01, -16.96, -58.70, -14.13, -48.19
-29, -18.42, 2.93, -34.71, -33.39, -7.89, -47.48, -9.41, -38.02
-28, -23.78, -3.84, -30.26, -45.51, -24.77, -64.91, -20.14, -51.03
-27, -14.37, -0.56, -36.93, -37.73, -16.79, -53.47, -15.53, -44.26
-26, -25.91, -7.47, -31.85, -55.32, -30.55, -68.37, -19.54, -54.16
-25, -10.93, 4.58, -33.13, -42.58, -15.91, -53.38, -9.21, -40.32
-24, -13.86, -6.44, -32.57, -56.93, -28.81, -63.10, -16.25, -49.67
-23, -6.91, -1.94, -38.82, -43.23, -19.33, -50.13, -13.23, -40.52
-22, -23.07, -16.09, -40.64, -56.75, -34.91, -65.94, -23.07, -51.50
-21, -21.88, -13.79, -41.86, -45.69, -22.44, -55.97, -16.88, -44.26
-20, -22.53, -22.33, -35.79, -52.08, -29.66, -61.67, -19.87, -50.09
-19, -13.57, -10.37, -37.37, -40.86, -18.78, -50.87, -12.92, -41.91
-18, -9.05, -3.22, -32.32, -45.98, -27.54, -57.04, -18.15, -47.99
-17, 2.55, 7.04, -28.59, -37.82, -17.08, -44.06, -11.96, -38.67
-16, -13.88, -6.82, -27.49, -39.88, -17.79, -43.54, -12.43, -37.17
-15, -11.98, -5.50, -27.49, -38.94, -15.47, -47.81, -8.85, -37.75
-14, -20.65, -1.39, -32.25, -40.95, -19.56, -48.19, -11.09, -37.95
-13, -25.12, -0.07, -30.49, -45.04, -20.25, -46.54, -11.96, -36.28
-12, -27.27, -7.73, -40.72, -39.99, -16.79, -43.38, -16.14, -36.93
-11, -27.11, -17.28, -29.82, -44.19, -19.36, -49.17, -18.69, -43.90
-10, -30.89, -13.79, -31.83, -35.65, -12.29, -42.96, -15.02, -38.60
-9, -31.54, -17.26, -23.04, -43.03, -18.13, -50.05, -14.22, -43.00
-8, -19.04, -4.45, -22.98, -32.39, -4.38, -36.86, -2.68, -27.22
-7, -23.18, -9.70, -14.55, -36.55, -11.56, -40.32, -1.63, -27.22
-6, -17.66, -20.45, -22.46, -40.57, -17.32, -47.59, -12.49, -39.23
-5, -21.84, -11.89, -25.79, -30.00, -6.44, -36.21, -3.69, -27.38
-4, -38.87, -18.04, -17.19, -40.43, -14.55, -47.52, -7.91, -36.57
-3, -22.58, -6.41, -15.02, -22.80, 4.47, -30.64, 4.36, -21.35
-2, -25.97, -21.41, -17.37, -43.43, -9.54, -45.62, -4.16, -32.95
-1, -11.76, -11.60, -17.01, -28.79, 4.58, -29.28, 3.42, -19.89
0, -13.81, -15.36, -12.54, -42.89, -3.91, -40.66, 0.63, -26.08
-29, -8.18, -2.46, -13.97, -30.31, 2.75, -29.82, 7.42, -16.38
-28, -16.58, -2.79, -11.62, -39.63, -8.18, -39.70, 1.56, -24.27
-27, -7.64, -3.29, -12.00, -27.92, 6.62, -28.27, 8.96, -15.07
-26, -17.50, -15.60, -15.49, -38.85, -7.55, -40.21, -2.66, -27.29
-25, -15.89, -8.47, -16.00, -33.21, 1.81, -34.42, 1.30, -23.98
-24, -23.89, -15.71, -18.22, -40.28, -3.44, -43.25, -5.92, -30.42
-23, -19.58, -8.36, -8.72, -30.29, 5.63, -36.25, 5.74, -19.89
-22, -21.59, -6.21, -13.81, -31.65, 1.12, -39.83, 1.88, -21.61
-21, -6.48, -3.93, -12.14, -28.61, 2.44, -33.62, 3.49, -20.03
-20, -9.99, -6.48, -14.60, -24.65, 2.39, -34.62, 4.83, -14.62
-19, -10.35, -7.24, -7.82, -29.33, -0.02, -30.91, 7.69, -12.83
-18, -9.28, -8.40, -16.79, -26.55, -1.50, -31.52, 3.71, -13.90
-17, -6.73, -7.55, -7.35, -32.97, -3.20, -37.73, 5.65, -17.39
-16, 0.00, 0.72, -10.91, -25.62, 3.73, -27.43, 8.02, -13.41
-15, -4.47, -4.78, -9.39, -32.41, -7.35, -37.95, -0.85, -27.87
-14, -3.44, 3.96, -16.25, -26.91, -1.03, -33.71, -1.07, -26.15
-13, -15.91, -9.21, -14.93, -37.19, -14.89, -41.71, -11.62, -37.71
-12, -14.44, -4.78, -21.17, -26.33, -4.60, -30.09, -7.55, -27.05
-11, -3.20, 4.92, -21.95, -23.27, -6.08, -28.54, -8.14, -27.76
-10, -15.38, -8.45, -20.21, -38.27, -18.37, -43.97, -17.10, -38.85
-9, -9.86, -7.60, -16.38, -24.41, 0.40, -29.41, -5.39, -25.08
-8, -20.03, -17.14, -10.01, -34.78, -8.76, -38.82, -6.86, -30.58
-7, -13.68, -3.91, -12.72, -18.73, 5.45, -21.26, 1.30, -16.76
-6, 0.51, 0.40, -8.67, -16.61, 11.73, -13.66, 9.05, -10.19
-5, -8.34, 1.48, -10.10, -25.77, 0.87, -23.13, 0.20, -19.92
-4, -4.05, 4.72, -8.90, -13.75, 12.94, -11.44, 10.21, -9.01
-3, -11.87, -3.15, -5.12, -20.76, 5.14, -18.22, 8.99, -11.76
-2, 1.77, 12.79, -1.52, -8.83, 13.99, -4.81, 18.78, -2.53
-1, -2.44, 9.68, -7.40, -17.26, 5.30, -19.11, 14.13, -7.24
0, -0.85, 4.56, -3.06, -14.19, 12.61, -10.75, 19.13, -4.40
-29, -8.83, -3.29, -8.69, -15.33, 8.81, -17.59, 14.35, -6.57
-28, -5.61, 0.83, -4.07, -17.39, 9.57, -17.26, 14.62, -9.32
-27, -8.34, -5.92, -9.63, -15.89, 7.47, -14.84, 11.27, -8.11
-26, -7.76, -5.50, -5.16, -19.04, 3.44, -18.64, 11.00, -12.58
-25, -9.41, -2.17, -10.46, -16.00, 7.35, -16.45, 13.99, -5.19
-24, -20.03, -10.71, -4.52, -21.88, 2.19, -23.45, 11.96, -10.08
-23, -17.10, -9.54, -11.69, -12.85, -0.40, -18.53, 10.26, -9.19
-22, -10.57, -8.81, -1.45, -22.17, -4.72, -23.56, 5.95, -15.11
-21, 1.10, 8.09, -3.38, -9.77, 7.17, -11.51, 12.99, -4.18
-20, -2.93, 8.05, 0.34, -17.39, 0.89, -19.27, 9.81, -11.87
-19, 1.61, 20.30, -7.22, -8.31, 15.83, -8.99, 16.09, 0.09
-18, -5.50, 3.98, -8.45, -23.00, 1.86, -24.27, 8.87, -11.53
-17, 0.76, 4.45, -14.22, -10.44, 9.97, -9.32, 13.10, -1.94
-16, 1.23, -3.26, -7.02, -20.32, -4.56, -20.23, 5.19, -12.67
-15, 6.30, -2.19, -6.26, -3.13, 12.09, -5.68, 16.70, 0.58
-14, -15.40, -3.80, -2.66, -16.90, 2.95, -17.08, 11.67, -9.81
-13, -5.39, 5.81, -1.16, -0.80, 19.04, -5.01, 19.78, 0.58
-12, -8.83, -3.29, -3.80, -18.26, 5.92, -19.89, 10.21, -13.46
-11, -2.01, 13.50, -5.57, -8.29, 15.07, -11.40, 15.22, -6.30
-10, -3.73, 8.74, -4.45, -19.56, 2.50, -18.98, 8.20, -13.17
-9, 4.20, 11.94, -4.87, -5.65, 9.83, -9.01, 13.99, -4.20
-8, -4.74, 5.86, -5.83, -14.44, 3.06, -16.21, 9.72, -10.77
-7, 2.50, 10.15, -5.77, -6.08, 12.18, -2.66, 17.59, 0.16
-6, -5.63, 3.33, -10.95, -10.75, 3.15, -14.01, 8.09, -8.47
-5, -0.04, 8.09, -2.62, -2.08, 7.53, -6.50, 14.93, -1.39
-4, -5.01, 4.94, -7.24, -6.26, 7.11, -10.01, 9.45, -2.64
-3, 1.99, 10.06, -2.88, -4.96, 3.93, -8.96, 8.18, -3.31
-2, 4.07, 10.28, -4.31, -3.29, 5.34, -2.62, 7.40, 0.76
-1, 6.33, 6.93, -4.58, -6.64, 4.38, -1.36, 6.21, -1.45
0, -7.22, 0.65, -4.83, -9.97, -2.10, -12.63, 2.30, -5.16
-29, -3.22, 7.80, -4.74, -15.76, -1.79, -21.97, -0.56, -14.71
-28, -6.28, 17.14, -10.55, -5.54, 4.63, -9.12, 5.83, -1.07
-27, -7.17, 11.15, -4.34, -13.17, -4.02, -16.56, 5.32, -6.37
-26, 0.31, 7.38, -10.15, -6.64, 7.40, -6.17, 11.24, -0.38
-25, -2.55, -6.37, -1.48, -18.80, -0.92, -15.78, 8.43, -7.24
-24, 7.64, 8.49, -7.80, -4.94, 12.87, -3.73, 12.85, 1.32
-23, -0.98, 2.77, -8.05, -20.41, -3.40, -17.12, 1.32, -14.04
-22, 5.95, 16.25, -4.94, -2.24, 9.21, -1.01, 11.78, 2.15
-21, -5.50, 4.14, -2.48, -12.07, -3.24, -16.43, 7.44, -3.53
-20, -0.38, 6.73, -2.73, 0.22, 9.10, 1.18, 17.37, 10.24
-19, -13.12, -4.34, -2.66, -13.97, -6.06, -13.30, 6.48, -3.44
-18, -6.97, 2.35, -4.05, -2.01, 3.24, -3.24, 10.80, 4.36
-17, -0.74, 13.10, -2.95, -7.71, 3.69, -0.72, 7.62, 2.97
-16, 5.59, 7.44, -0.42, -13.52, -0.25, -12.74, 5.43, -0.20
-15, 9.70, 18.73, 3.00, -1.52, 14.55, 0.27, 14.77, 10.28
-14, 7.44, 15.29, -2.62, -4.22, 4.52, -5.95, 8.99, 4.69
-13, 1.99, 12.56, -6.79, -6.41, -2.64, -6.17, 6.41, 4.00
-12, -1.05, -6.24, -7.89, -5.16, -7.64, -11.24, 0.38, -6.35
-11, -3.87, -0.56, -0.29, -6.01, -7.64, -14.86, 1.68, -6.93
-10, -10.08, 1.41, -6.84, -3.53, -5.30, -14.75, 0.60, -7.20
-9, -14.51, -2.10, -0.76, -12.00, -11.27, -22.73, -3.84, -15.15
-8, -2.59, 3.29, -6.41, -7.44, -3.49, -17.66, -4.40, -9.28
-7, -1.45, 7.29, 0.51, -15.40, -9.70, -24.88, -8.14, -17.41
-6, 4.67, 10.30, -7.64, -5.72, 0.42, -13.46, -4.85, -9.23
-5, -2.26, 1.79, 2.82, -13.68, -6.37, -26.60, -3.89, -14.91
-4, -4.14, 13.88, -6.12, -2.30, 4.69, -9.52, 4.07, -2.03
-3, -17.70, 3.33, -11.40, -19.56, -13.12, -31.52, -7.31, -18.80
-2, -3.33, 1.34, -12.70, -7.89, -5.21, -20.09, -2.30, -11.00
-1, -2.35, -6.19, -8.43, -21.86, -16.58, -32.90, -8.56, -21.08
0, 6.93, 4.81, -12.65, -4.63, 0.45, -17.05, 2.66, -7.96
-29, -2.41, -4.11, -7.71, -14.37, -11.24, -23.74, 1.32, -12.79
-28, -0.72, 4.90, -11.65, -4.07, 3.84, -6.88, 13.10, 0.29
-27, -8.96, 5.32, -10.28, -16.21, -15.24, -21.95, 1.56, -14.51
-26, 5.21, 13.68, -8.20, -7.09, -2.26, -7.09, 9.86, -2.59
-25, 3.71, 3.76, -6.12, -2.19, 4.43, -6.88, 10.82, -1.30
-24, -3.22, 1.36, -10.33, -12.16, -4.11, -17.84, 4.38, -7.85
-23, -9.28, -0.69, -13.86, -14.66, -9.68, -15.49, 3.31, -8.76
-22, -2.55, 0.29, -13.03, -9.28, -6.82, -8.54, 5.70, -7.47
-21, -3.84, -12.18, -19.07, -13.23, -10.48, -8.54, -1.81, -10.13
-20, 4.16, -2.97, -9.23, -11.29, -9.21, -7.09, 2.35, -7.85
-19, 9.95, 10.42, -10.46, -7.40, -6.75, -5.23, 2.97, -6.08
-18, 10.28, 12.36, -6.59, -11.80, -9.90, -14.26, 2.91, -10.06
-17, -0.74, 15.42, -9.72, -6.21, -5.61, -6.30, 6.44, -1.41
-16, -4.76, 7.38, -4.76, -12.23, -6.26, -12.18, 5.54, -4.72
-15, -0.02, 4.43, -14.10, -4.34, 0.49, -4.72, 3.26, -1.56
-14, -6.15, -5.61, -8.78, -13.50, -3.76, -11.04, -1.50, -9.52
-13, 3.26, 4.00, -7.69, -2.84, 12.32, 4.22, 8.02, 3.44
-12, 0.49, 1.32, -1.92, -9.70, 7.73, -2.44, 7.91, -2.01
-11, -0.63, 2.50, -11.00, 4.36, 10.64, 8.02, 12.07, 6.84
-10, -5.48, -10.44, -3.98, -9.07, -4.14, -4.83, 5.03, -4.14
-9, 6.75, 0.76, -17.03, -0.76, 3.62, 2.73, 5.50, 0.00
-8, 1.97, -8.00, -14.55, -14.31, -10.46, -13.55, -3.53, -17.17
-7, 15.29, 14.46, -12.54, -0.13, 8.76, 4.52, 5.65, -3.76
-6, 3.62, 20.12, -5.43, 6.68, 14.66, 14.35, 17.23, 3.04
-5, -3.98, 5.16, -7.26, -4.58, -2.44, -4.58, 6.91, -8.63
-4, -5.01, 4.90, -14.06, 0.60, 4.60, 2.37, 8.45, -4.27
-3, -1.88, -1.61, -9.68, -11.76, -4.63, -8.76, 2.95, -10.82
-2, 14.57, 18.02, -9.68, 1.34, 5.74, 2.46, 7.02, -0.45
-1, 1.97, 11.85, -11.27, -7.35, -4.65, -5.57, -1.83, -7.51
0, -8.61, -15.98, -16.94, -5.07, -9.66, -9.21, -7.78, -11.89
-29, 1.77, -10.33, -13.12, -7.76, -6.75, -13.99, -6.53, -14.75
-28, 1.14, -5.48, -12.72, -11.47, -8.47, -18.48, -8.63, -15.71
-27, 3.87, 1.94, -4.47, -10.06, -4.56, -12.00, -5.32, -12.34
-26, -14.91, 9.28, -11.98, -14.28, -10.28, -18.73, -12.32, -16.88
-25, -11.69, 7.47, -13.19, -7.00, -9.39, -15.31, -13.10, -16.74
-24, 4.92, 4.25, -3.26, -10.15, -12.00, -13.75, -10.06, -16.70
-23, 7.35, 10.04, -6.55, -1.65, -4.16, -4.52, -3.15, -7.44
-22, -0.96, 0.40, -0.38, -12.83, -8.34, -15.60, -3.73, -13.63
-21, 2.79, -2.48, -8.34, -4.83, 0.51, -9.39, -1.30, -6.86
-20, -1.50, -11.29, -9.48, -21.95, -12.99, -27.45, -12.94, -21.48
-19, 2.70, 6.41, -11.53, -13.52, -1.63, -20.05, -7.51, -13.25
-18, 4.25, 0.78, 0.02, -22.04, -10.68, -27.40, -11.85, -21.86
-17, 6.84, 6.97, -2.73, -5.65, 3.64, -7.76, -1.10, -6.24
-16, -4.87, 2.86, 0.83, -18.42, -7.29, -20.41, -1.25, -14.39
-15, 6.48, 16.96, -0.80, -2.59, 6.71, -5.34, 9.61, 1.12
-14, -0.42, 5.48, 0.60, -16.70, -8.09, -19.40, 4.22, -7.00
-13, 4.60, 12.96, 0.20, -3.76, 6.10, -5.12, 12.05, 5.34
-12, -8.74, -0.29, -0.63, -15.83, -7.69, -16.43, -1.05, -5.07
-11, 0.00, -1.39, 1.05, -4.09, 5.03, -0.29, 7.60, 6.73
-10, -5.30, -14.98, -0.89, -14.48, -2.62, -6.73, 3.08, 0.38
-9, 8.94, -5.50, 2.28, -2.24, 11.15, 10.48, 12.11, 13.01
-8, 4.38, -4.02, 7.06, -8.49, 9.66, 1.32, 12.87, 10.66
-7, 5.03, -4.78, 6.93, -1.27, 18.22, 10.82, 17.99, 15.27
-6, 2.88, -8.11, -0.85, -9.41, 7.40, -3.26, 5.50, 4.02
-5, 7.91, -0.65, -2.68, -1.63, 7.44, -2.32, 5.34, 2.17
-4, 7.85, 3.60, -5.68, -9.63, -1.21, -4.90, 0.63, -2.86
-3, 12.34, 12.07, 1.01, -6.64, 1.01, -3.11, 4.85, -2.12
-2, 7.44, 13.95, -1.79, -6.97, 1.54, -3.98, 3.42, -2.28
-1, 3.44, 7.98, 4.83, -11.22, 1.23, -8.02, 5.48, -6.21
0, -5.61, 4.49, -4.47, -7.82, 2.77, -4.90, 3.22, -6.26
-29, 2.03, -0.54, 1.54, -11.56, -5.92, -10.17, -1.56, -11.73
-28, 9.83, 5.79, -5.88, -1.70, 0.69, 0.16, 1.21, -4.81
-27, 6.66, -1.86, -2.50, -13.41, -7.91, -16.16, -4.78, -16.23
-26, 10.89, -6.30, -10.33, -5.14, 0.51, -4.27, -3.00, -6.35
-25, 0.11, -22.75, -8.43, -17.17, -10.71, -19.65, -11.04, -16.81
-24, 0.29, -9.86, -11.51, -4.45, 0.07, -6.39, -4.31, -5.90
-23, 2.12, -2.66, -1.81, -12.92, -9.50, -9.37, -8.52, -9.10
-22, 15.71, 14.71, -7.58, 5.83, 5.30, 8.14, 0.07, 4.11
-21, 8.11, 17.93, -3.53, -7.60, -4.34, -10.82, -3.73, -7.69
-20, 12.16, 27.65, -9.16, 2.12, 9.28, 5.68, 2.75, 2.57
-19, -0.98, 9.57, -7.20, -12.45, -3.26, -11.06, -5.03, -9.66
-18, 4.52, 12.32, -10.82, -2.57, 7.33, -0.56, -1.79, -3.26
-17, -5.63, 1.43, -6.55, -13.95, -5.65, -13.14, -13.12, -13.46
-16, 2.46, 2.24, -7.49, -2.70, 5.61, -5.81, -5.90, -6.01
-15, -4.63, -3.98, -4.47, -13.43, -2.82, -17.93, -9.97, -15.45
-14, -3.26, 2.10, -6.97, -5.88, 6.15, -8.72, -3.20, -7.71
-13, -5.01, 0.51, -6.17, -15.96, -5.63, -14.22, -6.26, -12.99
-12, 4.67, 6.46, -1.25, -5.16, 6.71, -3.15, 3.15, -2.62
-11, -4.87, -4.74, -2.66, -9.16, -2.46, -5.81, -1.54, -5.12
-10, 4.56, 0.04, -0.31, -6.77, 0.76, -1.88, 3.55, -0.76
-9, -5.59, 0.83, -7.02, -7.58, -2.84, -5.59, -1.25, -3.40
-8, -1.16, 8.05, -6.57, -8.45, -3.60, -4.72, -1.70, -5.25
-7, 0.89, 9.70, -10.71, -5.77, -5.10, 0.42, -3.89, -2.32
-6, 2.44, 10.62, -3.82, -4.94, -7.09, -3.02, -2.17, -2.75
-5, 5.79, 4.81, -7.20, -3.04, -0.13, 2.88, 2.73, 6.15
-4, 2.03, -6.77, -4.90, -7.69, -8.56, -2.59, -0.76, -0.47
-3, 2.44, 2.41, -16.58, -3.49, -3.67, 2.48, -0.07, 5.43
-2, -5.83, -6.41, -17.61, -16.18, -16.52, -9.97, -11.11, -6.57
-1, -6.55, 2.48, -8.61, -10.93, -11.94, -6.17, -8.00, -5.81
0, -2.62, 12.96, -15.36, 0.69, -0.11, 3.89, -4.56, 2.01
-29, -1.77, 6.35, -10.21, -11.82, -6.84, -9.23, -4.69, -6.37
-28, 5.81, 12.14, -13.52, 2.53, 8.94, 11.02, 8.76, 9.61
-27, 3.35, -0.02, -16.72, -12.38, -11.31, -3.98, -6.55, -8.36
-26, 3.67, 8.40, -19.92, -0.51, -1.63, 5.68, -2.28, 0.09
-25, -8.81, 2.66, -14.26, -11.89, -16.52, -6.64, -12.72, -13.19
-24, 1.01, 16.74, -19.07, -0.96, -1.88, 1.54, -8.34, -7.62
-23, -17.34, 1.74, -18.71, -18.04, -17.48, -17.81, -15.00, -18.19
-22, -7.26, -1.10, -16.34, -8.20, -1.90, -4.38, -4.76, -7.49
-21, -10.17, -9.41, -19.42, -20.79, -14.91, -21.84, -15.11, -20.79
-20, 0.87, 1.88, -13.90, -12.07, -5.48, -9.10, -7.55, -10.64
-19, 3.84, -0.42, -12.65, -17.01, -8.29, -12.43, -11.04, -14.26
-18, 11.35, 11.49, -9.57, -5.61, 6.79, -4.07, -1.77, -4.22
-17, 2.55, 9.03, -11.69, -12.00, 0.20, -4.92, -2.86, -2.79
-16, -0.45, 9.10, -9.03, -9.03, 2.24, -2.03, 0.13, -1.34
-15, -7.69, 10.15, -14.08, -13.03, -1.07, -8.47, -2.57, -5.28
-14, -7.24, 7.53, -8.29, -8.72, 0.51, -6.30, 2.41, -1.99
-13, -3.29, 1.18, -5.36, -5.86, 4.65, -3.00, 4.67, 0.27
-12, -1.10, -0.27, 1.03, -7.17, 5.34, -3.06, 7.69, 0.85
-11, -3.98, 2.77, -8.07, -3.29, 5.57, 0.38, 6.30, 4.60
-10, -5.48, -5.05, -7.44, -15.69, -7.35, -14.06, -1.25, -6.64
-9, -2.32, 2.53, -11.06, -6.08, -0.56, -4.07, 4.60, 2.50
-8, -7.20, -3.73, -5.57, -13.66, -8.81, -9.14, -0.40, -3.00
-7, -14.64, -0.63, -11.80, -4.47, 0.07, -3.29, 0.78, 2.66
-6, -22.11, -14.44, -2.28, -14.53, -10.19, -17.64, -1.63, -4.72
-5, -11.27, -6.75, -0.34, 2.28, 3.89, -1.97, 8.58, 9.92
-4, -15.91, -11.87, 0.98, -9.14, -11.13, -17.50, 1.92, -0.87
-3, -0.83, 0.07, -0.69, 6.21, 1.68, -2.50, 10.53, 12.94
-2, -2.77, -2.30, 0.02, -4.65, -13.68, -10.57, -0.04, 3.08
-1, 1.54, 5.57, -6.44, 3.69, 2.01, 5.05, 5.30, 12.03
0, -6.39, -4.69, -2.08, -10.17, -11.53, -8.52, -0.89, -0.18
-29, -1.21, -1.79, -3.38, 4.36, 4.83, 3.46, 10.26, 11.47
-28, -5.43, -8.00, 2.46, -6.19, -4.90, -6.08, 4.98, 2.75
-27, 4.31, 7.93, -2.86, 3.24, 6.71, 3.80, 11.71, 10.19
-26, -12.32, -2.88, -6.86, -8.56, -7.44, -10.86, 0.69, -1.94
-25, -13.21, -3.02, -6.82, -0.31, 1.14, -1.27, 4.63, 4.20
-24, -17.84, -12.67, -5.32, -0.51, -2.97, 0.09, 3.06, 1.52
-23, -25.68, -23.63, -5.36, -5.50, -9.52, -5.63, -4.07, -2.53
-22, -13.05, -10.97, 1.23, -1.70, -2.28, -1.39, 1.16, 0.65
-21, -10.06, -9.28, -0.83, -3.00, 0.00, 2.24, 3.26, 2.44
-20, -6.33, -3.98, -0.72, -4.94, -1.94, -5.92, 2.15, -0.87
-19, 0.18, -1.92, -6.48, -2.26, -1.74, -4.67, 0.96, -0.85
-18, 1.12, -9.16, -7.58, -6.73, -7.80, -10.53, -0.34, -4.58
-17, 4.38, -1.86, -10.46, -0.83, -2.03, -3.73, 0.22, 0.74
-16, -1.07, 1.43, -1.41, -5.07, -5.30, -8.31, -2.03, -6.21
-15, -0.58, 4.98, -2.75, -6.01, 0.51, -4.87, 2.21, -0.72
-14, 0.85, -1.25, -7.44, 7.53, 10.80, 5.52, 4.83, 4.18
-13, -8.74, -22.71, -7.02, -7.64, -2.75, -4.83, -5.54, -6.17
-12, -7.42, -15.20, -14.66, 3.24, 2.21, -0.13, -7.31, -4.16
-11, -6.73, -18.75, -5.95, -10.30, -10.44, -12.36, -13.79, -17.97
-10, 3.53, 5.34, -7.29, 3.38, 4.87, 0.34, -3.24, -5.32
-9, -2.50, 5.99, 0.16, -11.56, -4.52, -14.84, -6.21, -11.29
-8, 11.42, 9.39, -0.49, 5.83, 9.34, 2.41, 3.62, 2.82
-7, 0.16, -1.52, -1.63, -8.31, -7.40, -13.79, -9.05, -11.60
-6, 3.60, 9.90, -4.56, 2.01, 1.43, -8.34, -3.80, -4.31
-5, 0.94, -0.83, -2.62, -9.88, -12.81, -18.19, -9.37, -13.79
-4, 7.29, 8.36, -1.92, 6.44, 1.21, -5.32, 0.96, -1.97
-3, -4.34, -3.08, -0.80, -6.28, -5.68, -11.71, -3.13, -6.59
-2, -0.60, -5.48, -1.18, 3.60, 3.91, 1.70, 4.34, 1.77
-1, -11.06, -12.79, -4.87, -3.98, -6.35, -7.29, -1.72, -6.53
0, -2.30, -3.84, -2.41, 2.01, 1.30, -3.51, 5.19, -1.39
-29, -7.04, -13.32, -3.76, -1.59, -3.84, -4.92, 0.98, -4.16
-28, 1.39, -10.66, -1.03, -0.09, 2.50, -3.62, 3.24, -2.41
-27, -3.71, -14.48, -10.04, -8.43, -3.87, -11.09, -3.82, -8.40
-26, -2.84, -9.81, -2.86, -10.48, -4.76, -8.85, -1.39, -7.76
-25, -1.23, 4.47, -7.02, -1.27, 2.08, -4.90, -3.73, -5.19
-24, 1.63, -4.98, -1.83, -15.49, -10.46, -14.77, -9.52, -14.57
-23, 5.79, 0.16, -8.09, -4.49, 0.11, -5.72, -5.81, -7.91
-22, 0.92, -4.83, -0.98, -12.05, -7.51, -17.23, -9.88, -18.13
-21, 9.19, 11.15, -0.27, 1.25, 11.33, 1.14, 4.25, -1.30
-20, 1.92, 4.52, 6.66, -8.43, 4.49, -4.92, 4.25, -6.46
-19, 9.28, 18.57, 1.21, 6.68, 19.02, 7.26, 10.71, 3.69
-18, 2.88, 8.20, 4.60, -5.81, 1.99, -9.57, -1.63, -8.92
-17, 9.48, 9.19, -4.81, 4.16, 8.56, -2.39, -0.45, -4.02
-16, 1.88, 1.41, -4.60, -13.14, -10.33, -24.50, -13.97, -21.03
-15, 6.88, 10.57, 0.94, 6.41, 5.14, -3.29, -2.88, -5.97
-14, -3.38, 2.37, 2.06, -9.03, -6.41, -13.81, -8.81, -14.89
-13, 12.07, 9.05, -0.78, 2.17, 3.17, -9.37, -4.49, -9.12
-12, 5.63, 2.50, 2.73, -4.85, -5.99, -14.46, -8.31, -13.01
-11, 6.86, 8.11, -1.18, 1.74, 2.55, -6.19, -3.22, -5.28
-10, 2.93, 2.12, 0.63, 2.24, -3.67, -4.69, -4.47, -5.03
-9, -4.85, -6.75, -3.89, -6.12, -9.54, -14.55, -13.30, -14.01
-8, 0.80, -5.50, 1.48, -3.13, -9.45, -13.05, -13.23, -13.03
-7, 4.52, -6.03, 0.54, -2.50, -9.63, -14.17, -14.62, -10.57
-6, 3.53, -4.18, 4.16, -1.23, -8.52, -9.70, -11.60, -7.91
-5, -13.48, 5.77, 0.25, 3.20, -10.28, -0.67, -12.09, -2.84
-4, -8.52, 3.71, 6.82, -0.80, -10.33, -5.16, -12.00, -4.31
-3, -0.38, 5.61, 1.86, 2.73, -0.56, -0.85, -7.64, -0.80
-2, 2.37, 1.14, 5.32, -1.50, -5.43, -5.23, -9.75, -6.26
-1, 14.98, 2.55, 3.08, 5.90, 0.00, -2.41, -5.05, -0.27
0, 13.66, -1.50, 6.73, 1.79, -10.82, -5.63, -9.83, -7.33
-29, 3.84, 7.49, -3.40, 9.21, -2.37, 6.88, -6.19, 1.39
-28, -13.14, 8.96, 5.45, -4.31, -11.60, -8.00, -11.85, -8.67
-27, -2.06, 12.79, 1.77, 8.11, 3.82, 6.64, -5.05, 1.07
-26, -7.82, -0.45, 4.85, -4.90, -8.16, -8.31, -9.07, -9.03
-25, 2.19, 9.61, 5.70, 10.13, 3.46, 8.61, 1.50, 3.20
-24, 0.78, -2.55, 8.11, -1.39, -8.76, -5.97, -5.25, -9.14
-23, 10.21, 11.18, 7.22, 15.67, 4.18, 13.23, 4.45, 6.71
-22, 3.93, 5.16, 7.53, 3.04, -6.73, -0.89, -4.60, -4.09
-21, 3.60, 9.01, -0.60, 11.80, 4.94, 7.64, -0.27, 2.84
-20, -7.51, 0.92, 4.00, -3.64, -6.35, -3.40, -4.96, -4.34
-19, -1.79, 0.72, 8.38, -1.63, 3.33, 3.67, 4.49, 2.66
-18, 5.77, 2.24, 12.27, 10.91, 13.12, 17.70, 12.87, 13.21
-17, 2.08, -2.70, 5.52, 2.55, 3.13, 6.08, 5.32, 5.25
-16, -0.80, -1.34, 7.26, 6.57, 8.09, 8.20, 8.69, 8.92
-15, -10.37, -13.34, 3.98, -0.29, 1.25, 3.78, 4.67, 4.65
-14, 3.82, -3.02, 11.87, 4.34, 7.98, 8.29, 13.34, 11.20
-13, 4.72, 3.71, 9.25, 6.26, 6.12, 11.49, 11.06, 13.99
-12, 11.65, -1.68, 9.07, 7.35, 3.22, 15.89, 12.90, 15.62
-11, 10.35, 5.23, 8.81, 7.53, 5.72, 17.59, 16.38, 19.04
-10, -3.64, 4.72, 11.27, 5.19, 3.02, 11.87, 15.85, 16.85
-9, -7.22, -0.78, 5.43, 11.98, 7.71, 15.91, 14.39, 19.96
-8, -0.04, 6.86, -3.55, 6.08, 1.10, 5.45, 1.07, 3.82
-7, 11.69, 17.55, -6.55, -0.22, -7.38, 3.55, -6.03, -2.68
-6, 3.13, 8.96, -5.70, -13.32, -20.36, -11.33, -15.45, -17.30
-5, 9.45, 12.29, -13.72, -4.45, -10.57, -1.92, -12.07, -9.92
-4, 1.59, -5.92, -14.31, -24.25, -25.37, -25.77, -23.78, -27.31
-3, 9.88, 5.57, -13.08, -8.65, -16.90, -10.33, -15.31, -17.59
-2, 12.07, 2.46, -2.91, -19.42, -23.25, -19.16, -15.62, -19.71
-1, 20.47, 7.17, -4.43, -3.13, -5.30, 2.62, -3.84, -2.19
0, 15.71, -2.91, -2.64, -14.42, -17.46, -10.15, -9.14, -11.47
-29, 22.93, 6.95, -8.81, -1.14, -3.42, -2.75, -2.50, -2.88
-28, 2.08, -5.19, -11.38, -17.05, -16.83, -14.28, -10.01, -12.83
-27, 8.00, 8.07, -11.38, -3.84, -4.74, -3.00, -0.89, -1.68
-26, 6.75, 5.45, -9.16, -8.52, -13.79, -10.93, -5.43, -6.95
-25, 13.63, 11.73, -7.24, 0.98, -1.45, 4.74, 4.25, 4.27
-24, 7.58, 2.24, -6.68, -7.67, -9.12, -1.03, 1.32, 2.37
-23, 7.69, 5.19, -5.16, 1.81, -2.93, 4.56, 5.05, 6.66
-22, -6.82, 2.39, -5.90, -5.86, -6.12, -0.49, 3.13, 1.63
-21, 2.48, 8.23, -1.27, -1.52, 0.20, 4.14, 9.37, 5.32
-20, 10.08, 7.55, -9.32, -2.79, -4.20, -5.34, 2.15, 0.76
-19, 10.68, 8.81, -4.52, -1.92, -4.47, -3.26, 3.82, -0.36
-18, 13.08, 8.00, -8.27, -0.20, -1.30, 1.54, 2.97, 8.11
-17, 14.89, 6.71, -3.33, -3.73, -2.39, -1.86, 2.93, 5.34
-16, 11.76, -2.37, -7.17, -0.07, 7.49, 2.48, 7.98, 10.33
-15, 8.40, -8.34, 1.79, -3.98, 1.14, -2.06, 10.19, 7.91
-14, 8.07, 4.98, -0.80, 4.74, 6.37, 5.88, 16.94, 15.04
-13, 3.33, 8.20, 6.37, -4.22, -4.38, 3.51, 13.66, 9.05
-12, 3.78, 16.67, -0.11, 10.77, 6.17, 19.47, 17.19, 21.32
-11, -0.09, 10.06, 4.05, -7.91, -3.64, 5.72, 11.67, 10.57
-10, 7.93, 10.37, 0.74, 3.82, 6.79, 10.42, 14.26, 16.90
-9, -3.67, -3.69, 6.75, -6.46, -4.58, -0.29, 7.47, 7.49
-8, 0.83, 1.70, 7.09, 9.88, 9.68, 12.63, 14.98, 18.44
-7, -4.47, -8.65, 12.96, 1.65, -0.09, 6.33, 10.04, 10.33
-6, 12.67, 2.15, 6.84, 18.62, 13.55, 24.92, 17.46, 22.75
-5, 6.77, -14.37, -1.81, -3.29, -1.52, 3.73, 7.15, 8.85
-4, 14.15, -0.96, -2.35, 9.66, 8.74, 17.99, 14.62, 17.55
-3, 6.79, 2.88, 2.84, -2.62, -4.09, 4.05, 6.24, 5.81
-2, 11.89, 14.60, 2.50, 7.44, 12.79, 18.95, 14.82, 16.74
-1, -0.67, 0.29, 6.82, 0.47, 8.18, 12.36, 10.48, 10.30
0, 3.17, 5.36, 7.15, 8.34, 20.18, 20.05, 20.61, 18.35
-29, -1.14, 3.55, 1.23, -3.04, 11.69, 7.40, 13.25, 11.27
-28, 13.19, 12.72, 8.74, 6.84, 17.55, 14.37, 22.42, 18.53
-27, 13.95, 10.15, 3.44, 1.34, 8.43, 9.63, 16.72, 13.23
-26, 13.01, 11.47, 8.43, 7.33, 11.85, 14.86, 18.13, 14.28
-25, 7.33, -0.07, 5.25, 7.02, 7.17, 15.80, 18.08, 15.22
-24, 3.67, -12.29, 6.88, 5.92, 7.89, 12.99, 16.99, 10.26
-23, -10.37, -10.84, -0.11, 6.68, 6.01, 14.04, 13.46, 9.57
-22, -3.53, -4.34, 2.88, 0.96, -0.98, 6.93, 11.29, 4.31
-21, 5.72, 3.15, -4.43, 6.71, 2.88, 13.23, 11.96, 8.52
-20, 6.68, -0.07, -1.23, -1.81, -1.41, 4.18, 13.57, 5.59
-19, 5.28, -3.69, -8.23, 5.63, 2.95, 5.72, 16.00, 9.52
-18, -0.18, -8.85, -6.10, -6.06, -9.59, -8.23, 7.73, -2.84
-17, 4.78, 0.96, -8.07, 1.77, 0.85, 2.37, 11.22, 5.03
-16, -3.71, 2.06, 0.00, -7.00, -10.57, -9.23, 2.91, -9.10
-15, 5.59, 11.82, 0.63, 7.64, 2.75, 7.26, 11.44, 3.55
-14, -0.51, -0.38, 5.12, -11.42, -10.26, -6.26, 4.11, -7.67
-13, -6.01, -2.03, -3.22, -14.71, -13.77, -12.90, -1.81, -13.50
-12, 8.07, 10.91, -8.65, -3.13, -3.53, 2.41, 2.15, -3.87
-11, 3.29, 2.68, -5.41, -12.79, -13.23, -8.27, -3.15, -10.66
-10, -7.09, -12.27, -5.05, -10.66, -7.09, -5.83, 0.29, -4.78
-9, 5.07, 1.36, -2.68, 0.80, 3.17, 5.92, 4.92, 2.75
-8, 0.40, 3.02, -6.24, -10.39, -3.53, -3.00, -2.01, -4.85
-7, 7.58, 9.25, 0.47, -0.58, 6.37, 6.10, 6.33, 2.03
-6, 10.95, 8.00, 4.43, -5.14, 4.76, 7.82, 9.52, 4.14
-5, 11.09, 14.73, 4.52, 2.95, 11.78, 8.49, 17.59, 11.89
-4, 1.07, -2.62, 6.24, 9.66, 7.69, 12.23, 12.36, 11.96
-3, -7.51, 1.07, -0.13, 4.90, 1.77, 10.33, 7.47, 9.72
-2, -6.88, 2.70, 1.86, 5.34, -1.39, 11.09, 5.10, 8.18
-1, 2.32, 7.96, 2.66, 8.56, 4.18, 17.43, 11.91, 15.00
0, 8.05, 10.64, 8.61, 6.77, 4.09, 14.66, 13.30, 8.94
-29, 0.42, 7.44, -2.66, 13.37, 7.82, 17.34, 10.66, 10.33
-28, -11.80, -9.92, 5.07, 3.15, 3.71, 8.45, 9.43, 1.88
-27, -8.92, -5.05, 2.55, 12.43, 12.58, 16.76, 14.98, 9.25
-26, 0.13, 3.46, 12.41, 2.30, 7.89, 9.90, 16.23, 7.96
-25, 22.42, 10.24, 9.28, 16.94, 24.14, 24.14, 25.53, 21.64
-24, 13.03, 6.46, 14.95, 6.35, 12.32, 11.44, 17.59, 9.61
-23, 16.12, 10.84, 11.62, 18.66, 26.98, 22.15, 23.11, 18.02
-22, -4.83, 1.92, 13.88, 4.67, 14.55, 10.89, 16.65, 8.38
-21, -11.38, -9.79, 10.64, -0.04, 11.87, 2.68, 16.92, 7.55
-20, -3.49, 0.09, 4.81, 11.42, 21.28, 15.67, 17.66, 16.43
-19, -13.23, -4.29, 0.56, -5.45, 3.11, -5.83, 1.86, -3.02
-18, 2.50, 8.61, 1.18, 2.68, 14.46, 6.95, 4.81, 1.10
-17, 2.62, 3.38, -1.10, -7.76, -2.46, -2.17, -4.69, -8.14
-16, -0.20, 10.13, -6.08, 4.94, 7.24, 7.24, 0.16, -1.30
-15, -20.07, -8.31, -15.09, -13.37, -8.83, -6.06, -9.68, -12.05
-14, -11.78, 1.77, -8.38, -1.27, 1.72, 1.12, 0.02, -2.41
-13, -9.63, 1.65, -7.76, -0.96, -2.62, -1.30, -3.02, -4.05
-12, 7.29, -1.05, -0.54, 4.92, -1.50, 3.44, 3.20, 1.68
-11, 3.44, -3.87, 1.27, 4.67, 0.29, 8.94, 5.99, 3.55
-10, -2.01, -9.54, -7.98, -2.66, -4.29, 3.46, -1.59, -2.53
-9, -1.30, -0.04, -4.65, -2.64, -5.95, 1.63, -2.62, -6.71
-8, 3.89, -1.36, -9.07, -1.03, -5.99, 0.18, -5.12, -6.77
-7, 4.16, -2.17, -3.55, -8.76, -13.23, -5.63, -10.86, -14.64
-6, -0.54, 8.45, -9.37, -3.04, -7.33, -1.23, -9.23, -7.89
-5, -10.37, 6.59, -6.50, -12.54, -13.88, -15.89, -15.40, -18.13
-4, -14.33, 0.11, -13.79, -16.47, -22.24, -19.56, -24.14, -24.21
-3, -13.72, -3.15, -21.01, -8.09, -15.42, -9.99, -22.66, -18.84
-2, -10.64, -15.27, -8.54, -21.35, -25.17, -21.97, -25.50, -30.17
-1, 11.58, -14.57, -3.31, -3.62, -3.38, -3.58, -6.24, -9.54
0, 6.93, -13.72, -1.77, -14.06, -9.88, -11.11, -10.46, -15.85
-29, 8.02, 1.25, -5.61, 0.02, 2.75, 1.70, -3.49, -5.14
-28, -4.81, -5.86, -3.58, -16.61, -12.43, -17.10, -12.27, -19.76
-27, -4.49, 8.94, -10.13, -5.39, -5.16, -4.40, -10.75, -15.11
-26, -9.90, 5.21, -3.20, -20.94, -14.17, -19.00, -17.46, -27.60
-25, 1.68, 10.84, -2.48, -2.79, -0.04, -4.31, -7.31, -15.98
-24, -4.94, -0.74, -0.07, -12.27, -11.58, -13.37, -13.77, -21.52
-23, -1.94, 3.02, 0.40, 1.01, 2.64, 2.26, -2.73, -6.59
-22, -14.51, -11.47, -4.14, -12.27, -6.77, -11.56, -9.07, -14.35
-21, -7.33, -10.28, -5.43, -3.69, 0.65, -0.60, -3.35, -8.81
-20, -9.34, -16.36, -6.68, -11.69, -8.81, -8.40, -12.20, -16.43
-19, -0.96, -8.25, -7.29, -6.79, -6.57, -6.35, -9.52, -13.99
-18, -7.29, -11.00, -8.23, -6.88, -10.64, -8.61, -12.70, -15.85
-17, -4.74, -1.88, -1.56, -3.20, -5.43, -7.67, -7.69, -14.55
-16, -5.05, 2.19, -2.37, -3.67, -4.22, -4.85, -8.11, -11.69
-15, 0.25, 6.50, -6.26, -8.63, -4.67, -7.04, -11.13, -15.94
-14, -1.59, 5.88, -9.68, -3.26, -4.54, -5.83, -9.90, -12.79
-13, -6.08, 0.16, -7.35, -8.76, -12.11, -9.52, -11.51, -14.28
-12, -10.68, 1.10, -11.47, -6.26, -7.17, -2.79, -5.03, -6.71
-11, -13.93, -7.35, -5.14, -13.21, -11.56, -8.47, -2.44, -10.08
-10, -13.08, -0.51, -10.97, -8.58, -5.83, -1.27, -2.53, -6.01
-9, -8.94, -8.52, -2.57, -17.12, -12.74, -16.21, -5.34, -14.80
-8, -10.19, -13.72, -5.16, -15.78, -12.20, -19.45, -6.08, -16.81
-7, 0.22, -8.29, -5.63, -4.25, -1.16, -7.13, -0.40, -7.67
-6, -3.58, -9.07, 4.43, -13.28, -13.12, -11.56, -5.28, -16.23
-5, -3.60, -3.69, -4.63, 2.26, 0.58, 0.04, -1.25, -5.92
-4, -13.03, -16.43, 2.79, -11.78, -15.13, -13.30, -9.28, -13.77
-3, -11.98, 1.68, 2.50, 5.74, 0.87, 5.03, 2.46, 2.08
-2, -24.50, -3.91, -0.85, -7.71, -13.19, -12.29, -6.93, -10.97
-1, -9.75, 6.28, 0.45, 0.54, 0.11, 0.60, 1.39, -0.40
0, -6.79, 0.31, 1.88, -8.76, -9.86, -9.83, -6.55, -9.57
-29, 8.00, 1.41, 4.11, 7.44, 3.00, 5.39, 1.79, 2.95
-28, -3.31, -10.57, 0.67, -5.21, -6.19, -7.31, -6.71, -6.26
-27, -3.49, -5.79, 3.06, 1.61, 3.02, 2.03, -1.01, -0.02
-26, -14.19, -8.54, 1.16, -2.64, -5.48, -3.31, -6.75, -6.73
-25, -12.16, -7.04, 2.03, 0.04, 0.58, 1.90, -0.98, -4.69
-24, -9.34, -9.21, -1.25, -7.29, -6.37, -4.90, -6.79, -8.38
-23, -1.83, -5.72, 3.17, -1.92, -2.91, 0.98, -1.30, -3.08
-22, -9.72, -15.00, -0.22, -3.11, -1.25, 4.31, -0.25, -0.22
-21, -10.75, -14.26, 4.49, -6.30, -1.86, -1.74, -1.32, -3.82
-20, -7.96, -5.14, 4.22, -0.67, 3.84, 3.71, 3.24, 2.68
-19, -8.61, -10.66, 8.27, -3.29, -1.36, -2.35, -0.13, -6.39
-18, -4.52, -1.90, 5.57, -0.49, 0.65, -3.55, 0.09, -5.81
-17, -1.92, -2.21, 12.29, -6.46, -3.38, -8.56, -1.01, -12.58
-16, -3.84, -3.15, 8.34, 6.30, 4.72, 5.16, 5.39, -0.47
-15, -14.42, -16.18, 9.37, -8.20, -4.05, -7.20, 0.80, -8.11
-14, -13.95, -11.44, -2.95, 2.66, 3.91, 1.03, 2.57, 0.18
-13, -21.90, -14.53, 3.53, -12.67, -6.93, -13.63, -1.74, -10.75
-12, -18.89, -8.90, -3.40, -3.78, 5.32, -6.75, 1.18, -5.03
-11, -19.45, -22.24, 5.23, -17.30, -6.66, -19.45, -6.84, -17.26
-10, -6.48, -12.70, 7.67, 2.86, 8.20, 1.12, 3.96, -0.63
-9, -19.74, -27.63, 6.35, -10.33, -7.51, -9.90, -3.76, -9.68
-8, -3.24, -14.71, 7.31, 3.96, 8.56, 9.75, 8.63, 6.79
-7, -12.65, -13.03, 2.73, -9.39, -7.09, -3.58, -1.14, -4.78
-6, -12.34, -5.68, -2.53, 0.31, -1.92, 4.43, -0.60, 1.70
-5, -16.00, -13.17, 1.86, -13.46, -8.81, -7.11, -5.14, -5.23
-4, -9.01, -7.60, 2.01, -0.31, 5.34, 5.97, 7.33, 7.44
-3, -20.59, -21.06, 7.06, -7.42, 1.12, 1.48, 6.97, 5.99
-2, -9.75, -8.20, 12.03, 0.20, 16.90, 18.35, 21.01, 19.07
-1, -20.61, -11.38, 0.13, -9.81, 8.25, 0.65, 8.11, 6.50
0, -15.00, -8.85, -5.25, -7.53, 2.30, -2.37, -0.89, -1.61
-29, -18.13, -10.28, -2.64, -11.24, 3.08, -6.59, -2.48, -3.58
-28, -11.44, -12.61, -0.36, -10.30, 7.58, -5.81, -0.65, -4.02
-27, -9.72, -17.41, 2.79, -6.75, 6.55, 0.04, 3.24, 0.60
-26, -11.15, -15.04, 10.64, -5.61, 6.33, 3.69, 7.49, 4.20
-25, -17.28, -17.08, -0.13, -5.23, 2.44, 3.76, 4.92, 4.76
-24, -16.23, -19.49, 2.91, -10.91, -4.78, -5.77, 2.55, -1.70
-23, -12.83, -14.13, 2.75, 1.05, 8.76, 1.01, 11.76, 9.45
-22, -16.00, -22.31, 13.90, -3.84, 7.85, 1.27, 13.55, 9.07
-21, -22.44, -18.02, 3.80, 3.02, 16.32, 6.79, 13.90, 13.52
-20, -25.95, -20.88, 10.66, -8.72, 2.28, -5.70, 9.79, 2.84
-19, -22.53, -6.88, 7.58, 2.01, 12.90, 9.72, 17.05, 15.45
-18, -27.38, -18.44, 10.68, -10.04, 1.68, -1.72, 10.95, 4.96
-17, -13.57, -11.31, 4.81, 4.36, 14.80, 11.60, 18.95, 18.69
-16, -20.61, -16.14, 10.42, -5.39, 4.52, 1.45, 11.38, 11.49
-15, -26.64, -16.34, 7.60, -3.06, 1.83, 7.04, 9.88, 11.11
-14, -13.57, -4.85, 6.21, 14.01, 14.84, 24.36, 17.75, 25.06
-13, -22.64, -22.44, 7.93, 3.20, 1.05, 9.72, 7.67, 11.49
-12, -14.08, -13.32, 1.45, 7.26, 7.35, 21.82, 10.97, 19.49
-11, -14.86, -15.76, 3.26, -1.81, -2.08, 3.06, 2.70, 7.29
-10, -6.08, -6.41, 5.95, 7.51, 9.79, 10.21, 10.06, 13.37
-9, -16.23, -16.09, 3.71, -1.74, 0.96, 1.81, 2.59, 5.68
-8, -4.34, -7.58, 7.73, 4.65, 11.56, 9.10, 8.81, 13.37
-7, -11.29, -8.56, 3.93, -3.46, 5.83, 3.64, 7.02, 9.88
-6, -11.22, 3.71, 9.83, 5.61, 15.47, 15.56, 19.49, 20.59
-5, -16.63, 2.50, 5.72, 1.36, 13.90, 10.97, 19.49, 21.66
-4, -9.37, 2.62, 13.25, 7.40, 19.18, 17.28, 27.05, 27.09
-3, -3.76, -3.80, 10.82, 9.25, 21.19, 19.62, 27.78, 28.72
-2, -1.88, -9.88, 14.89, 5.95, 14.84, 16.70, 24.56, 24.72
-1, -1.74, -5.52, 9.10, 9.19, 15.33, 20.45, 23.78, 27.76
0, -2.86, -12.41, 9.77, 5.28, 6.44, 12.29, 18.26, 19.00
-29, -10.82, -11.00, 4.98, 12.70, 10.35, 18.98, 19.11, 25.91
-28, -11.65, -11.00, 11.98, 4.96, 1.77, 13.75, 15.15, 19.76
-27, -6.46, -0.49, 9.61, 12.03, 12.54, 23.34, 20.41, 27.94
-26, -14.17, -7.24, 15.42, -0.40, 2.95, 8.94, 15.85, 18.15
-25, -8.38, 2.82, 12.85, 11.27, 16.81, 23.13, 20.61, 28.34
-24, -13.79, -5.19, 15.85, 0.76, 5.72, 9.75, 11.44, 15.83
-23, -12.83, -2.24, 5.88, 15.36, 17.10, 23.02, 14.44, 22.66
-22, -12.92, -3.58, 14.73, 5.01, 6.06, 14.66, 9.23, 11.82
-21, 2.57, 5.28, 7.89, 15.98, 21.19, 26.35, 17.75, 20.61
-20, -7.69, -9.32, 4.72, -2.08, 7.58, 3.96, 8.05, 4.52
-19, 3.17, 0.72, 9.45, 11.04, 23.38, 19.09, 19.09, 16.27
-18, -6.24, -5.19, 9.32, -0.69, 6.88, 5.05, 8.96, 6.10
-17, -5.05, 4.60, 8.23, 10.84, 17.08, 15.42, 11.85, 12.03
-16, 7.42, 6.19, 7.42, 9.59, 13.50, 13.77, 7.40, 8.40
-15, 0.45, -11.00, 2.37, -0.27, 4.43, 4.90, 3.20, 0.31
-14, 2.06, -0.47, -0.09, 5.45, 7.09, 6.57, 4.47, 0.89
-13, -4.14, -5.83, 0.85, -2.50, -3.04, -3.71, -1.01, -3.82
-12, -3.06, -3.58, 1.59, 2.48, 1.65, 2.01, 0.58, -1.27
-11, -9.54, 0.34, -4.25, -3.58, -1.54, -2.79, -3.15, -4.27
-10, -0.16, 3.89, -0.69, -1.63, 3.44, 1.70, 2.84, -0.72
-9, -14.08, -9.23, -8.34, 0.36, -0.09, 1.97, -0.98, -1.81
-8, -10.13, -10.93, 2.30, -1.70, -0.36, 1.41, 4.09, -0.29
-7, -2.59, -0.69, 6.82, 7.20, 6.95, 7.06, 9.10, 7.15
-6, 2.46, -0.09, 7.49, -1.03, 8.23, 3.89, 10.42, 5.34
-5, 1.10, 7.15, 3.93, 7.51, 11.27, 8.81, 13.81, 8.00
-4, -2.32, 5.16, 9.99, 0.42, 10.24, 4.92, 14.22, 4.38
-3, -0.98, 5.01, 4.18, 8.05, 13.84, 12.63, 15.69, 12.07
-2, -3.84, -4.00, 14.31, 0.45, 7.11, 6.73, 10.77, 5.61
-1, 4.90, 0.94, 7.78, 13.63, 23.22, 18.53, 15.51, 16.54
0, 1.10, 0.07, 11.60, -0.74, 10.06, 8.16, 8.67, 6.48
-29, 4.67, 12.45, 3.20, 11.35, 18.53, 20.85, 12.92, 14.60
-28, -1.10, -3.40, 9.61, 16.05, 18.04, 21.84, 17.01, 20.16
-27, 6.37, 1.43, 7.69, 16.34, 13.55, 18.19, 10.73, 16.23
-26, -6.95, -1.92, 6.12, -1.74, -5.77, 2.62, -6.64, -2.19
-25, 3.02, 13.86, 4.60, 8.27, 8.90, 14.53, 2.82, 8.11
-24, 2.10, 9.07, 9.81, 1.18, 2.73, 3.38, -0.49, 1.48
-23, 12.32, 8.72, 11.65, 13.05, 17.43, 14.44, 10.66, 12.94
-22, 7.09, -4.25, 11.69, 4.74, 7.60, 4.85, 6.24, 7.26
-21, 11.35, 9.37, 17.88, 15.56, 13.77, 18.60, 11.96, 14.35
-20, -2.70, 8.74, 15.80, 8.18, 6.41, 15.42, 6.82, 9.48
-19, -1.01, 12.67, 14.86, 10.68, 10.33, 16.36, 7.60, 10.48
-18, -3.69, 11.94, 8.74, 5.52, 4.18, 11.94, 2.57, 6.21
-17, 2.24, 1.74, 10.80, 5.83, 7.44, 7.80, 3.62, 3.46
-16, 10.86, -8.36, 5.01, 4.74, 2.95, 5.79, -1.97, 1.45
-15, 12.94, -3.84, 10.97, 2.64, 2.73, 7.80, -2.88, -1.68
-14, 8.00, 6.48, 8.47, 8.76, 9.48, 10.21, -0.67, 1.63
-13, 9.92, 14.77, 14.73, 1.50, 3.93, 4.65, -2.28, -4.11
-12, 5.70, 18.17, 6.08, 5.01, 6.93, 6.19, -1.45, -1.74
-11, -1.10, -0.09, 9.77, -0.40, -2.37, -5.14, -6.97, -11.38
-10, 3.29, 3.53, 6.93, 8.25, 6.24, 8.29, 1.70, -2.35
-9, 2.06, 1.23, 12.92, -0.63, -3.91, 3.49, -0.04, -6.17
-8, 13.21, 13.70, 9.16, 14.95, 7.44, 18.26, 7.89, 6.33
-7, 12.94, 15.91, 5.36, 9.99, 9.48, 19.00, 8.63, 12.49
-6, -0.04, -2.03, 2.95, -4.67, -6.30, -2.03, -5.41, -4.58
-5, 1.99, 3.82, -0.74, 8.07, 6.30, 9.61, -0.51, 4.27
-4, -4.92, -1.41, 6.41, -4.96, -5.14, -5.25, -7.82, -7.33
-3, 2.66, 9.34, 3.84, 10.19, 9.83, 4.00, -1.27, 1.83
-2, -5.70, -9.79, 7.69, -2.03, -4.69, -7.64, -7.38, -5.30
-1, 4.96, -6.95, 7.06, 14.77, 9.34, 8.05, 2.48, 7.49
0, -3.04, -7.29, 2.50, -1.18, -8.61, -4.00, -6.64, -5.14
-29, 13.55, 8.43, 6.50, 10.77, 2.95, 5.59, 4.25, 6.12
-28, 11.44, 12.05, 4.83, 0.11, -2.41, -1.70, 0.56, 0.89
-27, 16.09, 22.24, 7.29, 10.04, 7.78, 9.75, 8.69, 9.90
-26, 12.18, 15.38, 7.44, 4.94, 3.15, 2.01, 6.24, 8.00
-25, 13.61, 15.62, 4.49, 7.89, 7.67, 13.21, 7.82, 12.00
-24, 12.99, 7.38, 0.83, 4.27, 5.25, 6.97, 3.00, 8.11
-23, 16.00, 6.33, 1.92, 3.02, 7.51, 4.69, 3.35, 8.29
-22, 4.43, 9.70, -2.03, 1.81, 6.77, 4.36, 1.03, 6.30
-21, 3.91, 10.42, 5.48, 2.62, 4.14, 4.05, 4.16, 5.03
-20, 5.97, 12.81, 2.91, 9.28, 2.46, 6.46, 4.67, 7.51
-19, 14.53, 17.90, 3.76, -0.69, -3.71, 0.11, 2.88, 1.27
-18, 25.12, 23.02, -7.64, 5.81, -0.31, 5.25, 3.89, 6.35
-17, 24.63, 14.84, -6.39, -5.34, -12.25, -6.53, -3.71, -4.56
-16, 25.08, 19.89, -13.99, 1.05, -5.81, 0.22, -1.52, 1.23
-15, 26.20, 18.10, -7.02, -10.53, -14.31, -13.88, -7.38, -10.97
-14, 48.88, 29.59, -22.17, -32.68, -31.00, -34.44, -26.17, -30.13
-13, 63.32, 41.84, -42.60, -31.23, -33.77, -40.23, -35.63, -36.55
-12, 72.84, 43.27, -52.46, -60.06, -66.63, -71.10, -62.79, -66.83
-11, 95.24, 57.65, -67.61, -57.96, -70.05, -73.94, -73.18, -72.29
-10, 100.45, 50.27, -74.83, -79.15, -95.80, -99.58, -93.01, -96.58
-9, 126.26, 71.97, -87.62, -82.17, -93.34, -96.00, -97.01, -97.43
-8, 131.25, 73.47, -98.48, -102.95, -117.99, -120.65, -117.57, -120.63
-7, 146.00, 86.37, -109.75, -99.04, -118.08, -120.43, -120.74, -122.64
-6, 144.75, 85.54, -117.93, -119.25, -142.65, -145.00, -140.59, -144.62
-5, 155.72, 98.71, -125.39, -118.26, -145.09, -146.14, -145.82, -146.34
-4, 157.62, 89.09, -125.06, -128.19, -158.94, -157.56, -153.47, -154.94
-3, 168.80, 92.29, -128.77, -122.51, -151.75, -151.88, -150.72, -151.50
-2, 163.08, 88.27, -131.81, -130.27, -160.15, -153.53, -156.55, -155.21
-1, 165.98, 98.21, -124.57, -121.35, -153.18, -146.18, -150.58, -150.61
0, 157.22, 100.16, -127.76, -123.69, -161.42, -148.82, -154.07, -152.17
-29, 154.20, 107.87, -120.01, -122.76, -156.24, -143.77, -145.42, -146.83
-28, 148.01, 111.58, -119.18, -118.62, -154.76, -147.86, -140.97, -142.87
-27, 152.17, 106.44, -111.51, -120.72, -148.50, -144.91, -135.52, -141.44
-26, 146.49, 103.24, -113.68, -112.61, -135.76, -134.20, -128.19, -131.16
-25, 136.06, 96.18, -101.75, -111.78, -131.27, -129.24, -119.65, -127.18
-24, 130.47, 95.06, -98.26, -97.65, -117.32, -108.50, -108.03, -110.64
-23, 105.61, 83.42, -83.82, -76.13, -94.41, -86.79, -84.42, -86.41
-22, 81.92, 61.96, -70.92, -80.04, -94.57, -90.39, -81.81, -87.08
-21, 71.79, 56.55, -60.95, -56.53, -68.93, -70.68, -61.42, -63.66
-20, 59.30, 40.41, -50.16, -56.97, -66.72, -70.99, -57.87, -66.07
-19, 49.75, 40.19, -41.13, -31.07, -42.11, -44.97, -40.46, -43.88
-18, 31.61, 30.78, -26.00, -28.05, -40.97, -41.26, -35.56, -43.21
-17, 30.40, 35.65, -14.95, -9.05, -11.40, -10.84, -12.23, -14.77
-16, 11.60, 13.41, 2.53, -10.37, -10.33, -5.57, -3.15, -8.31
-15, 14.33, 13.30, 10.24, 12.65, 17.81, 20.97, 19.24, 17.88
-14, 2.86, -2.55, 16.52, 5.25, 16.58, 16.79, 19.92, 15.78
-13, 2.86, -2.55, 16.52, 5.25, 16.58, 16.79, 19.92, 15.78
-12, -15.15, -6.62, 33.44, 38.51, 51.32, 54.81, 52.53, 51.70
-11, -23.20, -24.77, 41.69, 36.70, 47.48, 60.71, 58.29, 58.70
-10, -21.75, -26.73, 45.51, 49.31, 61.13, 75.97, 70.77, 70.83
-9, -33.01, -30.33, 47.10, 46.76, 64.02, 64.69, 72.51, 64.57
-8, -33.84, -26.80, 51.57, 45.96, 73.16, 70.05, 78.54, 65.94
-7, -39.16, -31.85, 62.23, 51.12, 84.98, 75.48, 92.00, 75.75
-6, -47.07, -44.77, 74.92, 62.29, 84.11, 83.60, 90.70, 81.81
-5, -48.93, -43.59, 66.43, 63.77, 88.38, 82.68, 87.98, 81.38
-4, -57.98, -46.80, 71.21, 56.35, 82.66, 73.78, 87.15, 77.14
-3, -56.06, -40.66, 67.82, 62.94, 91.55, 84.60, 95.80, 88.85
-2, -55.10, -52.91, 69.29, 55.61, 88.16, 80.22, 95.15, 85.65
-1, -48.37, -51.59, 63.08, 67.59, 94.32, 89.92, 97.16, 93.56
0, -53.93, -59.61, 65.18, 54.09, 80.29, 72.49, 85.09, 77.61
-29, -51.39, -48.44, 59.34, 66.74, 87.33, 84.29, 90.06, 83.71
-28, -56.21, -51.54, 65.11, 56.97, 74.57, 71.79, 82.90, 73.89
-27, -51.77, -43.85, 60.98, 69.31, 86.12, 81.70, 87.40, 83.95
-26, -60.01, -55.28, 65.22, 55.10, 71.66, 65.62, 79.10, 71.28
-25, -46.83, -47.05, 64.95, 70.45, 85.76, 78.97, 86.72, 81.79
-24, -51.54, -56.10, 65.71, 53.26, 73.89, 63.72, 76.82, 68.60
-23, -45.04, -46.13, 62.05, 64.08, 86.57, 79.08, 83.55, 76.82
-22, -55.28, -45.46, 62.96, 64.64, 90.28, 71.93, 86.28, 77.94
-21, -60.01, -57.38, 61.87, 48.50, 76.44, 59.01, 78.66, 68.89
-20, -53.40, -47.14, 64.22, 59.75, 86.41, 68.75, 88.22, 80.53
-19, -51.74, -46.94, 68.26, 55.50, 79.59, 65.62, 86.52, 79.15
-18, -44.35, -42.27, 65.56, 64.17, 88.83, 79.62, 91.62, 86.93
-17, -54.27, -48.62, 61.04, 55.68, 80.49, 70.90, 84.09, 79.66
-16, -47.36, -44.59, 62.45, 59.63, 86.66, 72.13, 85.25, 79.86
-15, -49.75, -42.94, 57.15, 54.92, 83.10, 69.13, 80.04, 75.41
-14, -43.38, -34.35, 61.65, 54.69, 83.73, 71.30, 81.83, 76.49
-13, -44.52, -31.81, 53.91, 53.55, 79.26, 73.76, 79.30, 78.23
-12, -55.32, -37.37, 49.98, 46.11, 70.25, 70.30, 75.68, 75.30
-11, -56.66, -45.78, 44.46, 46.47, 68.89, 72.13, 73.22, 77.49
-10, -49.08, -51.48, 49.17, 37.95, 62.54, 64.15, 68.82, 69.89
-9, -47.45, -39.03, 48.68, 35.07, 59.77, 56.71, 64.33, 59.25
-8, -45.66, -27.38, 42.89, 47.01, 68.13, 69.85, 68.60, 67.12
-7, -51.74, -33.08, 45.51, 36.61, 55.03, 58.67, 61.47, 57.87
-6, -43.92, -26.80, 40.46, 51.32, 67.95, 71.57, 68.28, 69.34
-5, -44.10, -40.28, 44.95, 40.97, 62.36, 58.34, 63.19, 59.12
-4, -33.59, -36.03, 35.09, 50.89, 70.32, 64.66, 59.41, 61.33
-3, -43.90, -39.23, 35.41, 32.54, 52.03, 42.09, 42.62, 36.84
-2, -41.08, -24.59, 36.61, 46.87, 64.89, 58.07, 52.15, 51.25
-1, -46.09, -29.86, 41.37, 32.86, 50.78, 44.88, 41.22, 39.79
0, -34.49, -19.22, 40.75, 44.64, 65.00, 57.09, 49.33, 50.85
-29, -40.55, -29.68, 41.75, 31.18, 57.11, 43.38, 47.10, 42.76
-28, -33.28, -20.07, 35.38, 40.77, 65.45, 53.93, 49.49, 49.26
-27, -45.15, -26.91, 33.06, 26.00, 46.72, 34.33, 35.03, 31.74
-26, -40.88, -19.54, 33.39, 35.85, 54.76, 40.32, 40.97, 36.01
-25, -43.16, -27.11, 31.27, 27.02, 46.00, 31.16, 34.15, 28.25
-24, -33.66, -27.85, 32.92, 32.97, 51.54, 37.80, 37.57, 33.89
-23, -38.62, -29.39, 29.57, 27.58, 41.66, 30.51, 31.23, 27.49
-22, -36.81, -21.66, 29.41, 31.92, 46.34, 34.69, 36.77, 30.76
-21, -45.46, -24.07, 24.48, 27.27, 38.58, 32.34, 29.28, 29.73
-20, -42.09, -20.70, 29.62, 28.10, 41.40, 34.20, 31.43, 31.94
-19, -43.47, -24.21, 27.05, 31.09, 45.49, 36.79, 32.54, 36.39
-18, -38.15, -29.71, 34.06, 28.45, 41.91, 34.33, 31.78, 35.18
-17, -33.97, -32.52, 28.59, 35.09, 46.04, 41.66, 36.34, 44.59
-16, -33.53, -35.79, 33.73, 30.13, 41.22, 35.79, 34.47, 38.94
-15, -34.11, -28.10, 24.70, 35.03, 47.05, 40.77, 36.32, 42.04
-14, -39.54, -27.40, 30.93, 24.27, 41.37, 29.33, 35.70, 33.48
-13, -30.55, -12.96, 22.82, 32.37, 49.78, 35.45, 38.49, 36.79
-12, -34.62, -11.20, 27.31, 19.76, 35.90, 20.41, 30.35, 23.87
-11, -29.68, -2.86, 21.28, 30.31, 44.32, 31.45, 33.06, 33.51
-10, -29.75, -14.10, 25.75, 17.14, 30.20, 20.47, 22.22, 24.12
-9, -26.73, -8.56, 23.00, 29.88, 44.52, 36.32, 28.16, 37.37
-8, -26.55, -16.54, 23.22, 30.29, 43.68, 38.07, 25.10, 28.90
-7, -30.64, -21.23, 25.35, 13.21, 27.49, 20.83, 16.85, 15.69
-6, -25.08, -9.52, 18.86, 22.62, 38.24, 27.76, 19.11, 18.22
-5, -34.02, -17.86, 13.99, 5.23, 19.65, 6.39, 4.38, 0.85
-4, -39.36, -19.92, 13.46, 3.64, 18.17, 4.85, 5.54, 3.98
-3, -27.51, -13.99, 14.44, 14.95, 27.76, 17.10, 14.44, 13.66
-2, -31.14, -20.99, 14.75, 3.64, 16.05, 6.97, 10.84, 10.06
-1, -24.54, -15.67, 19.13, 9.19, 22.51, 12.52, 18.02, 18.06
0, -30.09, -27.16, 15.71, 4.05, 16.81, 4.90, 14.48, 16.43
-29, -34.67, -35.79, 12.85, 6.01, 16.25, 0.00, 12.11, 14.08
-28, -28.70, -28.83, 11.24, 4.74, 13.79, -3.26, 7.42, 9.95
-27, -31.58, -20.07, 2.19, 3.26, 9.21, -5.90, 0.02, 5.12
-26, -26.49, -14.66, 9.14, 2.59, 2.19, -5.21, -4.27, 1.48
-25, -19.62, -2.84, 8.65, 7.58, 4.98, 0.16, -5.10, 4.65
-24, -11.38, 2.32, 7.89, 10.26, 11.18, 4.34, -2.26, 6.73
-23, -19.60, -0.89, 8.25, -0.56, -0.47, -6.71, -10.55, -5.88
-22, -23.13, 5.16, -3.69, 7.22, 2.84, 2.53, -9.88, -3.64
-21, -29.33, -5.72, 2.73, -4.69, -11.40, -9.30, -18.53, -17.99
-20, -23.72, -13.84, 2.19, -8.49, -8.25, -13.75, -19.20, -22.73
-19, -15.20, -5.45, -6.12, 4.38, 4.16, -0.09, -14.64, -11.89
-18, -22.28, -15.74, -4.18, -11.40, -9.23, -17.75, -21.55, -24.30
-17, -15.87, -5.48, -5.74, 3.53, 4.69, -0.98, -8.00, -9.07
-16, -21.90, -13.10, -2.64, -10.71, -10.08, -16.23, -13.93, -19.96
-15, -12.72, -5.43, -4.07, 3.55, -0.25, -1.21, -4.07, -5.88
-14, -18.91, -12.00, -3.29, -12.72, -11.13, -18.51, -12.32, -18.75
-13, -8.54, -1.99, -2.06, 0.11, 0.78, -2.32, -2.82, -4.76
-12, -14.24, -5.41, -2.39, -12.41, -14.42, -14.84, -13.93, -14.24
-11, -10.51, -2.35, -1.18, -1.59, -1.97, -4.52, -5.12, -2.66
-10, -17.70, -10.24, 1.61, -8.18, -8.18, -11.73, -8.11, -4.43
-9, -18.55, -7.51, 5.72, 3.55, 2.64, 0.54, 1.27, 6.62
-8, -17.61, -10.04, 0.20, -4.25, -9.61, -9.81, -9.48, -1.72
-7, -10.42, -11.56, 0.83, -2.70, -9.43, -9.97, -11.47, -4.98
-6, -22.80, -13.88, 4.60, 0.20, -7.17, -2.95, -7.98, -0.54
-5, -21.82, -9.97, 8.16, 6.46, -2.08, 6.21, -4.58, 4.25
-4, -31.38, -13.05, 7.85, 12.32, 4.14, 8.72, -2.91, 6.21
-3, -40.43, -30.58, 16.43, 19.42, 16.14, 16.16, 7.85, 15.18
-2, -34.91, -33.21, 29.57, 17.64, 14.82, 9.19, 8.69, 5.88
-1, -39.47, -33.71, 38.96, 32.70, 33.28, 25.95, 21.68, 16.23
0, -46.63, -36.05, 55.14, 29.79, 32.43, 25.50, 24.68, 12.56
-29, -37.66, -28.99, 62.00, 42.89, 53.29, 38.91, 37.46, 26.64
-28, -46.54, -43.23, 61.11, 31.23, 47.72, 29.28, 32.75, 21.97
-27, -45.91, -41.42, 55.97, 44.68, 61.85, 46.98, 42.45, 38.65
-26, -56.86, -49.73, 59.66, 39.12, 54.92, 43.83, 47.14, 42.54
-25, -53.04, -42.09, 53.47, 54.61, 70.68, 61.60, 57.38, 58.41
-24, -64.93, -57.49, 57.20, 42.00, 52.19, 53.58, 50.09, 57.69
-23, -61.15, -55.57, 56.46, 56.91, 63.32, 71.91, 60.44, 78.79
-22, -68.17, -64.24, 59.79, 41.98, 54.34, 48.37, 51.52, 55.28
-21, 4267090.00, -64.24, 59.79, 41.98, 54.34, 48.37, 51.52, 55.28
-20, -63.88, -61.24, 60.10, 60.15, 75.55, 57.62, 59.95, 66.56
-19, -66.43, -64.10, 50.98, 44.57, 52.08, 42.16, 42.78, 50.67
-18, -61.69, -54.65, 58.36, 57.22, 63.48, 56.80, 54.05, 64.26
-17, -67.97, -57.24, 52.44, 50.83, 50.92, 34.73, 37.62, 41.48
-16, -61.06, -48.77, 49.20, 54.65, 50.11, 34.53, 33.44, 37.48
-15, -53.33, -54.78, 48.48, 49.98, 47.86, 40.14, 32.39, 42.92
-14, -51.14, -47.30, 45.26, 45.20, 43.09, 38.65, 28.81, 37.15
-13, -50.76, -35.09, 45.49, 49.55, 43.27, 36.70, 29.59, 32.83
-12, -60.95, -36.77, 35.92, 44.75, 40.43, 25.35, 19.00, 22.55
-11, -57.78, -47.50, 47.43, 42.13, 38.09, 22.17, 16.38, 18.98
-10, -50.60, -39.79, 49.13, 44.52, 49.33, 31.61, 25.15, 25.44
-9, -44.17, -41.35, 47.65, 30.26, 42.07, 25.37, 26.11, 18.46
-8, -42.69, -35.99, 45.87, 46.78, 50.63, 41.95, 40.88, 38.74
-7, -47.68, -34.33, 48.01, 37.62, 45.06, 32.70, 40.30, 31.20
-6, -42.00, -27.49, 34.56, 43.41, 45.49, 37.26, 39.58, 36.97
-5, -43.59, -37.26, 48.73, 30.26, 27.89, 27.67, 31.61, 30.15
-4, -24.23, -22.60, 42.20, 40.95, 44.52, 40.88, 41.48, 44.12
-3, -26.96, -23.96, 45.60, 32.23, 31.94, 27.27, 41.80, 40.14
-2, -20.47, -22.84, 29.01, 53.20, 44.26, 40.26, 52.75, 58.23
-1, -34.80, -36.72, 21.93, 23.51, 33.17, 23.04, 42.29, 45.73
0, -30.29, -27.31, 16.90, 40.14, 45.62, 35.47, 46.96, 53.49
-29, -33.10, -27.54, 21.99, 19.29, 25.17, 17.26, 33.51, 36.34
-28, -30.06, -12.90, 24.03, 31.67, 33.84, 32.48, 39.92, 47.10
-27, -25.39, -10.91, 23.36, 33.26, 35.20, 33.64, 37.10, 46.83
-26, -31.85, -26.96, 20.27, 19.29, 23.98, 24.05, 28.19, 36.75
-25, -22.73, -21.35, 22.13, 26.02, 35.67, 34.47, 33.21, 43.38
-24, -26.00, -24.54, 16.41, 21.10, 20.90, 18.15, 18.35, 24.27
-23, -19.00, -17.72, 22.26, 23.58, 22.87, 16.83, 17.55, 17.68
-22, -24.25, -13.93, 22.31, 15.85, 15.91, 6.93, 9.43, 8.18
-21, -22.91, -6.53, 20.47, 11.78, 9.88, 3.15, 0.00, -2.93
-20, -28.77, -8.78, 11.29, 5.50, 5.86, -4.83, -6.77, -8.43
-19, -20.79, -6.66, 7.73, 3.82, 5.72, -3.84, 0.16, -2.44
-18, -20.32, -8.78, -2.26, 7.20, 0.87, -8.05, -2.01, -3.46
-17, -16.83, -11.31, -2.17, 4.96, -0.87, -13.86, 3.96, -3.78
-16, -11.53, -6.55, -6.77, -1.21, 3.62, -8.27, 11.31, 2.12
-15, -16.21, -8.20, -2.79, -3.29, -8.69, -15.29, -3.04, -9.88
-14, -14.51, -5.48, -12.16, -0.47, -1.41, -7.51, -1.70, -2.30
-13, -18.71, -12.07, -9.16, -11.56, -7.31, -15.31, -4.31, -7.13
-12, -13.41, -9.19, -11.71, 3.29, 0.83, -2.59, 0.89, 5.39
-11, -17.43, -20.23, -6.77, -8.87, -13.10, -14.19, -4.74, -1.03
-10, -15.69, -16.36, -15.07, 1.50, -4.34, -2.88, -1.23, 5.86
-9, -17.64, -16.52, -16.81, -16.99, -21.50, -22.96, -17.32, -13.41
-8, -1.59, 3.91, -16.03, -2.50, -11.24, -14.98, -15.18, -7.00
-7, -5.07, 6.75, -12.05, -16.21, -20.52, -26.13, -18.55, -15.36
-6, -0.72, 20.99, -17.88, -2.75, -4.90, -9.50, -9.10, -2.84
-5, -5.48, 12.56, -15.69, -15.58, -21.90, -24.81, -22.62, -17.84
-4, 1.30, 17.34, -18.28, -0.45, -13.55, -12.79, -16.23, -7.98
-3, -9.57, 0.18, -13.10, -13.14, -21.75, -25.70, -20.03, -17.01
-2, 0.07, 6.48, -17.72, 3.02, -14.44, -17.75, -16.50, -13.77
-1, -1.14, -2.97, -7.76, -5.77, -21.59, -25.41, -18.42, -20.92
0, -1.07, 0.65, -12.47, -1.97, -10.39, -10.95, -11.71, -14.44
-29, -4.60, -3.58, -18.73, -11.89, -21.86, -20.59, -18.10, -23.31
-28, 2.77, 9.28, -11.13, -11.04, -15.69, -15.22, -7.44, -15.58
-27, -1.88, 10.15, -18.15, -16.00, -14.86, -16.61, -1.99, -12.47
-26, -5.63, 2.19, -21.08, -12.03, -10.21, -16.38, 5.03, -9.16
-25, -16.67, -4.98, -25.35, -10.66, -14.57, -21.19, -3.87, -13.70
-24, -12.41, -6.19, -21.44, -12.54, -13.10, -21.68, -5.23, -15.29
-23, -8.96, 0.63, -22.84, -14.33, -16.43, -23.07, -11.56, -16.83
-22, 0.96, 10.19, -14.24, -16.05, -18.84, -22.02, -7.51, -15.20
-21, 10.44, 19.00, -20.63, -5.86, -7.73, -7.96, 6.84, 1.41
-20, 9.50, 12.47, -17.72, -12.00, -12.56, -12.83, 6.93, 0.16
-19, 7.38, 8.27, -21.30, -0.25, -20.00, -7.38, -1.88, -0.25
-18, -2.37, 3.11, -16.23, -12.03, -30.71, -22.33, -9.72, -13.39
-17, 1.63, 17.14, -20.25, -8.20, -21.19, -9.99, -9.10, -5.86
-16, -1.36, 14.84, -19.16, -19.18, -30.67, -23.54, -15.07, -15.45
-15, 4.52, 18.31, -29.55, -9.68, -9.16, -8.34, -1.27, 2.37
-14, 2.26, 10.06, -30.13, -22.31, -22.73, -23.83, -12.03, -10.01
-13, 12.03, 21.44, -30.17, -11.29, -17.26, -17.03, -14.80, -9.30
-12, 6.91, 16.12, -19.20, -24.36, -29.62, -31.83, -22.62, -25.17
-11, 12.81, 28.90, -20.74, -12.56, -9.81, -14.95, -13.14, -13.03
-10, 2.21, 12.72, -21.41, -29.91, -22.13, -27.58, -23.69, -27.07
-9, 11.09, 12.81, -19.29, -12.03, -9.25, -15.02, -13.50, -16.52
-8, 2.75, 3.38, -17.90, -25.57, -22.55, -27.85, -17.97, -27.02
-7, 6.93, 12.85, -17.48, -14.39, -15.13, -15.22, -12.45, -19.45
-6, 2.55, 12.09, -11.98, -17.97, -25.10, -24.68, -14.80, -24.07
-5, 9.37, 23.58, -15.24, -10.77, -10.39, -17.23, -5.41, -16.25
-4, 1.45, 15.33, -16.81, -20.05, -20.16, -25.86, -11.87, -20.88
-3, 10.57, 12.29, -14.42, -13.52, -9.68, -15.02, 2.12, -8.58
-2, 6.12, 2.97, -17.81, -16.70, -10.91, -11.96, 3.49, -5.23
-1, 6.91, 8.00, -16.67, -13.57, -5.25, -6.93, 12.47, 6.64
0, -0.34, 13.99, -20.34, -15.29, -19.33, -3.13, 10.80, 9.66
-29, 6.15, 27.67, -8.65, -13.23, -15.29, -4.34, 14.15, 6.06
-28, 9.99, 34.62, -14.75, -9.03, -13.79, -0.80, 16.27, 11.31
-27, 11.69, 31.81, -10.82, -11.04, -16.65, -4.67, 13.55, 9.03
-26, 12.72, 29.17, -18.44, -3.96, -8.90, -1.30, 9.97, 11.67
-25, 10.30, 19.13, -19.11, -9.54, -19.36, -11.65, 2.53, 5.25
-24, 8.76, 24.30, -25.32, -6.12, -20.05, -7.58, -0.92, 7.64
-23, 7.33, 18.71, -17.68, 4.25, -19.96, -6.17, -4.87, 2.68
-22, 5.28, 10.93, -11.89, -14.51, -28.25, -16.52, -12.94, -7.35
-21, 9.28, 17.08, -15.83, 3.73, -19.09, -11.02, -11.91, -3.84
-20, 4.38, 14.13, -7.38, -14.77, -32.07, -21.57, -17.64, -17.95
-19, 14.60, 23.16, -12.38, -2.03, -18.53, -8.78, -11.76, -11.15
-18, 8.27, 13.99, -9.39, -15.78, -31.58, -29.26, -21.28, -26.46
-17, 10.64, 22.62, -14.17, -0.54, -13.12, -15.47, -6.35, -12.32
-16, -3.60, 10.33, -12.25, -14.84, -25.55, -31.14, -14.48, -26.13
-15, 5.39, 20.65, -10.42, -3.62, -11.20, -15.98, -0.65, -11.11
-14, 1.48, 11.62, -5.25, -12.92, -15.65, -19.54, 8.36, -9.41
-13, 8.65, 18.64, -12.34, -3.11, -10.19, -1.34, 5.32, -0.65
-12, 5.19, 7.20, -16.00, -14.80, -21.57, -16.85, -1.99, -11.96
-11, 13.81, 9.25, -13.30, -1.92, -12.96, -9.05, 3.17, -5.72
-10, 7.51, 10.08, -18.80, -20.94, -28.30, -19.24, -8.07, -15.27
-9, 10.19, 21.64, -7.22, -6.57, -20.45, -9.45, 9.23, 0.98
-8, 6.79, 20.72, -10.71, -9.48, -21.28, -8.00, 16.52, 8.34
-7, 7.53, 16.41, -14.89, -9.12, -17.37, -8.52, 8.96, 0.00
-6, -0.38, 3.49, -21.66, -5.19, -20.50, -16.79, -2.93, -9.41
-5, -0.83, 2.53, -23.56, -8.56, -23.04, -25.08, -10.44, -21.28
-4, -4.45, 7.73, -27.05, -12.54, -26.00, -29.33, -18.40, -25.48
-3, 1.05, 17.10, -15.67, -15.02, -26.69, -25.88, -12.29, -18.64
-2, 1.30, 29.59, -20.63, -13.97, -25.12, -23.69, -7.51, -8.52
-1, 2.17, 23.56, -17.86, -20.38, -33.95, -31.18, -16.54, -21.41
0, 6.46, 21.08, -22.37, -16.61, -31.11, -26.64, -18.53, -19.40
-29, -2.17, 14.71, -14.89, -21.06, -41.17, -37.89, -21.23, -26.44
-28, -3.49, 19.92, -28.50, -15.49, -26.46, -23.54, -14.55, -17.32
-27, -1.48, 11.60, -19.49, -24.70, -34.06, -34.02, -19.18, -30.85
-26, 10.66, 17.10, -22.89, -8.31, -17.66, -18.84, -9.79, -19.80
-25, 6.73, 6.95, -23.29, -22.80, -29.68, -30.67, -14.91, -30.58
-24, 14.66, 12.18, -19.45, -5.90, -13.68, -10.21, 2.79, -11.69
-23, -2.75, -5.88, -11.51, -11.00, -20.90, -18.66, 1.34, -15.24
-22, -1.25, -2.77, -17.39, -4.27, -4.27, -2.64, 10.51, -2.24
-21, -2.55, 2.37, -20.18, -21.84, -17.93, -17.66, -0.20, -18.28
-20, 8.00, 14.82, -20.54, -8.45, 0.00, -3.96, 10.04, -4.31
-19, 1.41, 15.09, -21.57, -17.46, -12.38, -6.10, 7.82, -3.58
-18, 15.60, 31.36, -25.66, -5.54, 2.39, 12.00, 15.58, 9.48
-17, 2.53, 15.51, -22.37, -7.55, -7.49, 2.82, 13.52, 5.34
-16, 5.32, 19.42, -16.99, -7.11, -0.98, 14.24, 23.34, 22.31
-15, 2.55, 9.68, -19.89, -9.79, -9.88, 8.49, 21.10, 19.58
-14, 4.87, 14.57, -22.71, -5.12, -8.14, 3.91, 16.47, 10.59
-13, -5.50, 6.64, -21.17, -13.39, -13.10, -0.56, 9.81, 5.99
-12, -2.66, 7.15, -22.08, -7.02, -12.20, -1.81, 5.43, 1.45
-11, -2.70, 10.37, -26.17, -14.37, -17.79, -15.65, -6.35, -11.13
-10, -6.48, 9.61, -19.20, -18.33, -20.03, -17.81, 0.60, -3.42
-9, -7.40, 5.36, -14.01, -10.93, -10.39, -7.53, 14.31, 14.84
-8, -4.87, -7.80, -13.28, -6.86, -10.95, -3.98, 15.45, 14.80
-7, -2.17, -10.71, -18.55, 4.16, -9.01, -0.09, 10.80, 13.43
-6, 1.10, -13.05, -15.53, -9.79, -10.42, -4.83, 5.57, 4.56
-5, 4.94, 14.71, -13.70, -10.73, -11.94, -8.05, -5.81, -7.04
-4, 7.31, 27.81, -22.02, -0.56, -1.77, 2.39, -4.09, -3.69
-3, -0.74, 18.15, -14.10, -9.01, -10.91, -11.91, -0.89, -9.41
-2, 5.57, 15.36, -14.06, 4.76, 3.49, 2.93, 19.62, 10.64
-1, -1.05, 6.37, -10.55, -15.00, -2.88, -7.91, 25.86, 7.11
0, -1.86, 7.20, -17.72, -15.24, -7.00, -5.07, 20.54, 2.30
-29, 7.82, 15.87, -26.87, -1.03, 8.40, 10.62, 29.68, 15.20
-28, -1.01, 3.80, -29.91, -8.81, -12.11, -2.30, 11.06, -2.28
-27, 3.51, 8.36, -29.71, 0.67, 3.78, 17.61, 30.53, 21.84
-26, -3.60, -1.54, -27.02, -16.38, -8.85, 5.16, 25.08, 15.96
-25, 1.14, 9.97, -26.44, -3.15, 1.43, 14.08, 28.74, 23.02
-24, -4.38, 3.89, -28.48, -12.83, -11.15, 0.92, 21.41, 16.14
-23, 5.59, 18.46, -23.98, -0.74, 0.85, 9.88, 24.92, 19.47
-22, -0.22, 15.91, -24.39, -9.37, -10.66, 0.07, 12.90, 9.50
-21, 1.61, 18.31, -17.90, -2.03, -4.38, 7.13, 17.81, 18.60
-20, -0.22, 11.67, -23.45, -11.82, -15.18, -1.83, 9.75, 11.78
-19, 9.14, 3.38, -16.96, -11.15, -11.51, -3.53, 14.75, 12.83
-18, 11.22, 9.16, -18.42, -4.96, -13.75, 2.21, 17.72, 14.71
-17, 10.93, 14.26, -20.74, 2.17, -9.88, 11.35, 14.93, 16.34
-16, 4.45, 20.65, -16.70, -9.03, -12.67, -3.84, 11.62, 9.45
-15, 2.44, 20.94, -22.75, -0.20, -4.58, 5.25, 14.80, 14.98
-14, 3.29, 8.47, -21.84, -10.64, -10.91, -13.37, 6.03, -0.98
-13, 7.24, 7.47, -28.61, -6.06, -3.96, -8.96, 5.97, -0.72
-12, 3.93, -0.42, -30.71, -17.23, -11.40, -16.61, 3.06, -9.81
-11, 5.32, 6.15, -35.07, -5.41, -2.39, -2.79, 10.89, -2.01
-10, 5.59, 8.94, -26.24, -5.10, 8.07, 1.25, 32.41, 13.03
-9, 2.06, 1.90, -23.34, -17.12, -6.17, -8.54, 27.29, 5.43
-8, 6.91, 10.15, -26.38, -3.49, 3.02, 2.95, 34.35, 18.93
-7, 0.22, 1.50, -23.89, -19.60, -8.85, -9.23, 31.92, 13.14
-6, 5.57, 13.28, -28.92, -7.69, -0.74, 8.00, 33.73, 23.65
-5, -9.16, 7.78, -30.73, -15.96, -18.40, -8.96, 21.48, 11.15
-4, -2.35, 12.61, -26.89, -9.23, -1.32, 4.58, 30.26, 23.78
-3, -7.96, 0.22, -26.91, -18.31, -10.51, -6.79, 22.17, 14.48
-2, 2.55, 1.54, -28.45, -9.77, 2.48, 4.22, 30.38, 24.18
-1, 0.94, -11.11, -28.95, -23.38, -6.28, -10.08, 24.10, 18.08
0, 12.65, 2.17, -22.69, -4.87, -0.78, 2.53, 26.42, 28.92
-29, 9.57, 1.88, -25.32, -10.89, -14.69, -5.23, 12.92, 16.85
-28, 15.24, 14.95, -20.41, -7.11, -9.03, -2.10, 19.96, 19.11
-27, 3.26, 13.10, -16.41, -11.20, -8.99, -5.12, 21.79, 17.95
-26, 2.86, 15.13, -18.86, -10.01, -5.72, 0.38, 23.31, 15.53
-25, 0.11, 10.08, -27.78, -12.38, -9.52, -10.48, 16.34, 1.36
-24, 2.82, 7.22, -20.79, -14.08, -12.72, -21.55, 12.90, -4.92
-23, 6.62, 11.24, -26.51, -12.72, -16.12, -19.51, 5.28, -11.06
-22, 8.09, 6.68, -17.32, -14.06, -18.42, -26.60, 9.99, -16.25
-21, 8.72, 5.92, -18.64, -6.37, -9.99, -17.59, 20.88, 0.18
-20, 2.10, 2.53, -17.05, -18.10, -13.17, -13.57, 21.64, 1.27
-19, -3.49, 4.83, -28.92, -6.10, -10.15, -6.93, 19.42, 3.82
-18, -5.88, -3.04, -23.65, -22.75, -18.46, -17.99, 16.74, -3.38
-17, -2.03, 1.39, -29.55, -11.22, -12.96, -10.33, 15.27, 3.89
-16, -11.85, -9.03, -27.47, -19.09, -28.43, -20.23, 3.64, -4.60
-15, -3.08, -2.37, -32.61, -7.98, -15.33, -2.86, 12.36, 9.99
-14, -3.82, 2.01, -29.64, -6.82, -8.87, -1.18, 21.12, 14.13
-13, -11.29, -0.38, -27.65, -21.41, -24.81, -23.09, 8.29, -1.12
-12, -2.55, 10.44, -27.20, -3.42, -7.09, -8.99, 18.24, 11.51
-11, -10.57, -3.42, -29.19, -20.97, -21.01, -23.09, 7.76, 0.72
-10, -10.28, 8.96, -29.26, -8.58, -5.54, -1.10, 19.18, 18.42
-9, -15.11, 5.21, -26.73, -20.59, -12.67, -19.40, 16.63, 8.61
-8, -6.64, 10.89, -25.95, -7.82, -7.35, -5.74, 16.41, 13.86
-7, -18.78, -0.47, -27.83, -18.98, -23.56, -20.92, 7.60, 5.61
-6, -3.98, 7.33, -30.11, -10.04, -21.48, -10.48, 5.92, 3.84
-5, -7.64, -3.55, -32.28, -17.68, -31.85, -22.73, -4.16, -8.40
-4, -1.68, 0.38, -30.42, -9.30, -23.38, -13.97, 2.97, -1.90
-3, -3.26, -0.09, -32.19, -11.22, -27.72, -24.88, -6.41, -13.77
-2, -1.23, 4.58, -30.24, -14.08, -26.71, -25.62, -4.45, -14.91
-1, -11.13, 4.36, -33.13, -17.81, -32.90, -24.65, -5.70, -15.96
0, -14.24, 7.82, -28.27, -22.22, -30.29, -24.97, 1.70, -15.49
-29, -12.67, 6.03, -32.81, -21.61, -25.28, -24.45, 4.85, -15.07
-28, -7.91, 3.55, -26.93, -24.63, -22.26, -29.50, 5.81, -17.97
-27, -6.66, -1.16, -33.75, -16.29, -16.41, -22.75, 7.71, -9.72
-26, -7.67, -6.33, -28.72, -26.33, -24.34, -29.15, 5.34, -13.46
-25, -6.06, 4.40, -29.53, -17.84, -18.53, -19.54, 6.46, -6.30
-24, -11.06, -4.58, -20.63, -21.26, -23.09, -27.87, 3.87, -11.65
-23, -3.64, 1.12, -23.76, -11.80, -10.06, -14.26, 9.19, 0.31
-22, -4.67, 3.04, -21.93, -25.24, -19.89, -28.95, 3.71, -9.59
-21, 5.79, 11.76, -22.73, -10.62, -7.67, -15.58, 20.07, 9.79
-20, -4.38, 8.69, -21.59, -26.78, -24.72, -27.40, 13.34, 1.94
-19, 0.58, 17.46, -23.54, -10.84, -13.52, -19.47, 16.92, 9.37
-18, -7.69, 5.07, -16.83, -17.43, -22.04, -32.52, 15.80, -0.58
-17, -0.47, 5.77, -18.44, -6.73, -9.43, -18.24, 22.11, 6.97
-16, -8.34, -3.62, -24.16, -30.73, -29.97, -41.15, 4.20, -10.97
-15, -8.25, 9.50, -27.65, -13.50, -24.56, -30.47, 2.84, -8.02
-14, -27.72, 0.85, -28.39, -34.71, -40.41, -50.65, -10.08, -26.51
-13, -23.36, 1.74, -28.95, -24.01, -27.69, -41.64, -5.07, -20.38
-12, -11.06, -3.38, -22.28, -15.94, -18.64, -30.82, 1.94, -12.72
-11, -10.95, -9.23, -22.82, -28.72, -26.26, -37.62, -2.26, -16.12
-10, 1.63, 6.75, -22.37, -18.42, -25.48, -27.47, -5.07, -14.10
-9, -4.96, -6.06, -19.16, -15.80, -23.11, -22.04, 9.07, -7.96
-8, -3.69, -9.19, -24.83, -15.94, -28.65, -23.56, 8.34, -5.83
-7, -0.36, -2.21, -22.73, -17.32, -24.92, -18.73, 9.90, -3.80
-6, -1.68, 13.37, -30.67, -17.39, -21.48, -20.00, 11.29, -1.18
-5, -0.92, 19.94, -22.69, -22.49, -21.44, -22.96, 13.19, -4.47
-4, 1.05, 22.75, -27.74, -15.87, -14.69, -18.89, 15.13, 1.41
-3, -2.53, 10.35, -21.50, -22.69, -26.58, -28.12, 7.76, -5.01
-2, -2.64, 7.26, -24.14, -15.98, -18.17, -20.92, 11.67, 5.16
-1, -10.21, 1.92, -17.93, -28.07, -32.43, -34.38, 4.83, -5.05
0, -5.30, 8.94, -22.75, -16.05, -24.30, -24.07, 12.96, 5.57
-29, -13.05, -2.53, -20.07, -26.64, -33.97, -33.37, 11.02, -3.02
-28, -9.77, 0.74, -21.30, -12.90, -21.35, -19.18, 14.86, 5.97
-27, -13.12, -5.19, -13.39, -25.75, -28.12, -29.88, 11.13, -3.49
-26, -4.98, 5.70, -16.58, -10.73, -8.18, -15.22, 18.04, 8.18
-25, -10.89, -2.44, -9.48, -23.83, -17.97, -29.55, 10.06, -1.77
-24, -2.17, 3.51, -11.22, -10.26, -4.76, -16.83, 22.62, 10.19
-23, -8.07, -7.06, -15.09, -22.40, -24.18, -32.68, 12.05, -3.08
-22, -0.98, 5.88, -12.45, -8.61, -12.90, -20.09, 20.07, 6.64
-21, -3.51, 0.78, -11.67, -24.52, -27.43, -30.33, 14.15, -4.07
-20, 4.09, 4.92, -14.53, -10.19, -12.32, -16.81, 22.91, 2.88
-19, -2.93, -0.74, -14.35, -20.90, -19.96, -31.38, 16.94, -7.51
-18, 4.72, 4.47, -10.19, -10.84, -11.58, -17.10, 23.69, -0.45
-17, -4.20, 1.05, -11.47, -16.18, -19.49, -24.59, 17.81, -8.63
-16, -2.21, 14.95, -8.09, -9.97, -11.87, -19.40, 22.44, -6.37
-15, -8.54, 11.42, -12.11, -16.00, -17.14, -25.86, 16.07, -10.17
-14, -2.73, 6.73, -10.35, -13.81, -14.55, -23.56, 18.22, -8.69
-13, -2.01, -0.72, -15.51, -15.78, -11.09, -24.52, 19.89, -7.55
-12, 0.22, -4.87, -10.24, -16.00, -10.28, -23.63, 20.85, -4.02
-11, -0.47, 0.11, -17.64, -14.26, -10.06, -19.13, 17.77, 1.34
-10, -2.01, 0.00, -8.81, -17.14, -11.29, -20.36, 19.20, 2.55
-9, -4.67, -0.18, 0.31, -14.55, -16.63, -24.74, 15.56, 5.36
-8, 1.65, 5.54, 4.49, -3.58, -3.87, -13.88, 26.89, 19.09
-7, -2.66, -2.01, 22.02, -14.44, -5.68, -20.41, 33.06, 17.03
-6, -2.70, 2.21, 15.38, -3.51, 5.30, -6.97, 40.03, 26.80
-5, -7.13, -4.92, 19.13, -17.23, -6.35, -24.12, 27.85, 9.57
-4, -10.10, -5.79, 14.75, -18.86, -14.55, -29.41, 16.72, -2.79
-3, 1.61, 8.92, 16.41, -2.75, -3.13, -15.78, 23.09, 5.52
-2, -5.32, -0.34, 19.69, -15.33, -16.47, -32.59, 16.25, -5.70
-1, 0.87, 4.92, 18.48, -0.85, -3.98, -15.91, 29.77, 7.13
0, -5.70, -5.79, 18.35, -16.05, -19.89, -31.87, 20.88, -6.50
-29, 3.60, -3.38, 16.34, -4.31, -2.30, -18.84, 32.72, 5.59
-28, -5.92, -9.50, 19.36, -18.04, -12.00, -29.73, 22.64, -8.23
-27, -4.49, -7.42, 16.14, -15.56, -8.76, -28.45, 17.77, -13.14
-26, -0.07, -1.81, 13.14, -5.30, -4.11, -17.79, 17.93, -9.03
-25, -10.89, -2.26, 13.12, -8.25, -10.55, -18.19, 19.11, -7.71
-24, -5.12, 1.68, 19.42, 3.53, 6.88, -4.18, 40.30, 11.24
-23, 8.83, 8.69, -4.18, -11.47, -7.04, -13.77, 23.34, 1.05
-22, 15.89, 9.16, -15.87, -20.65, -20.61, -25.88, 8.07, -9.41
-21, 22.80, 13.97, -19.62, -33.84, -30.53, -40.30, -2.55, -23.49
-20, 22.66, 25.55, -26.02, -37.57, -36.84, -45.93, -10.26, -26.20
-19, 46.49, 43.27, -32.30, -41.60, -36.59, -50.34, -4.43, -19.60
-18, 58.90, 45.53, -37.93, -56.95, -55.07, -65.80, -24.70, -38.20
-17, 65.54, 50.43, -52.48, -52.26, -56.46, -63.05, -34.65, -42.24
-16, 56.06, 44.79, -54.23, -68.62, -73.43, -82.21, -44.35, -58.49
-15, 69.47, 57.65, -70.30, -65.94, -76.89, -83.44, -49.96, -60.55
-14, 73.83, 63.37, -72.64, -84.38, -102.68, -105.79, -65.22, -82.37
-13, 88.47, 82.72, -86.46, -78.54, -98.41, -101.12, -69.07, -81.90
-12, 92.54, 78.39, -95.29, -104.29, -124.43, -129.08, -93.01, -108.34
-11, 101.10, 82.14, -103.58, -96.45, -120.23, -123.67, -90.59, -105.43
-10, 100.76, 78.23, -109.57, -120.74, -142.74, -151.01, -109.66, -129.26
-9, 127.70, 96.27, -118.60, -115.42, -142.98, -148.28, -113.86, -132.64
-8, 132.68, 102.53, -121.44, -135.38, -168.62, -171.73, -131.74, -156.62
-7, 142.58, 123.85, -132.48, -128.95, -164.49, -166.36, -135.32, -158.63
-6, 138.76, 126.06, -147.97, -149.33, -195.89, -191.80, -170.72, -188.25
-5, 154.65, 131.79, -161.98, -166.61, -224.97, -209.17, -202.24, -215.56
-4, 172.78, 148.33, -164.96, -165.58, -224.28, -202.93, -203.11, -213.39
-3, 176.47, 147.21, -174.95, -178.23, -229.46, -215.11, -199.60, -221.28
-2, 165.36, 138.16, -181.76, -185.18, -235.50, -222.78, -206.02, -223.09
-1, 170.32, 142.83, -174.39, -184.42, -230.80, -220.59, -201.32, -218.35
0, 168.85, 140.99, -175.57, -182.61, -228.19, -218.26, -196.56, -208.79
-29, 163.35, 139.18, -165.89, -178.97, -220.75, -213.88, -181.99, -195.78
-28, 157.18, 141.20, -162.74, -171.26, -207.25, -208.97, -168.53, -185.09
-27, 146.58, 135.45, -156.95, -170.70, -205.23, -208.47, -166.19, -187.20
-26, 137.35, 118.04, -140.82, -162.41, -189.65, -197.12, -153.85, -174.59
-25, 140.68, 120.07, -143.48, -146.20, -182.88, -179.64, -158.43, -166.23
-24, 133.02, 104.78, -130.47, -151.54, -186.82, -186.95, -158.47, -171.26
-23, 130.98, 109.86, -129.80, -134.89, -173.36, -170.41, -150.70, -157.54
-22, 100.83, 92.60, -129.30, -143.63, -184.98, -178.48, -158.23, -168.91
-21, 91.93, 90.28, -123.43, -123.81, -164.98, -154.34, -142.74, -150.54
-20, 79.62, 73.65, -113.06, -128.63, -167.73, -157.49, -140.73, -150.65
-19, 70.56, 60.89, -94.86, -113.03, -153.29, -142.54, -136.84, -148.28
-18, 75.86, 60.22, -89.63, -93.63, -130.80, -121.79, -118.98, -128.34
-17, 60.48, 45.24, -91.35, -105.34, -142.25, -130.53, -125.42, -136.35
-16, 52.26, 48.70, -88.02, -87.15, -125.35, -111.62, -115.09, -123.23
-15, 33.46, 37.89, -78.79, -92.92, -128.79, -114.64, -112.88, -124.30
-14, 37.15, 41.40, -69.51, -73.74, -102.71, -89.94, -91.80, -100.74
-13, 30.73, 31.20, -60.75, -75.37, -94.01, -86.32, -80.18, -90.39
-12, 36.48, 30.96, -53.60, -59.86, -74.57, -68.31, -60.51, -71.82
-11, 34.56, 16.25, -40.88, -49.00, -51.12, -46.76, -23.18, -31.85
-10, 13.10, 10.37, -35.65, -45.53, -51.34, -41.04, -17.81, -21.64
-9, 4.11, 11.71, -34.24, -38.74, -44.59, -35.27, -8.18, -10.59
-8, 5.07, 10.93, -26.42, -35.25, -40.50, -31.23, -3.49, -10.17
-7, -0.96, 2.62, -27.98, -28.52, -36.10, -26.91, -3.22, -9.79
-6, -14.51, -6.19, -17.30, -28.61, -36.86, -24.63, 2.01, -9.05
-5, -20.63, -7.73, -22.66, -18.37, -31.94, -18.02, 0.22, -9.88
-4, -25.97, -28.97, -19.67, -24.77, -40.88, -23.22, -8.47, -18.84
-3, -26.22, -34.87, -20.68, -11.85, -30.44, -6.84, -4.27, -1.52
-2, -20.68, -38.38, -8.31, -18.93, -39.74, -15.29, -10.86, -10.46
-1, -12.16, -18.95, -9.14, -5.48, -22.73, -2.91, -9.72, -6.06
0, -25.15, -12.47, -3.13, -16.27, -35.47, -18.48, -20.43, -20.45
-29, -20.85, 3.44, 0.58, 0.63, -18.95, -3.62, -5.74, -3.98
-28, -25.26, -5.01, 9.92, -10.06, -19.69, -13.46, 1.18, -6.55
-27, -20.61, -9.77, 6.50, 7.11, -3.76, 4.49, 12.92, 10.66
-26, -28.70, -22.84, 16.27, -5.88, -9.45, -0.89, 15.27, 9.61
-25, -22.84, -13.03, 15.96, 7.04, 9.88, 16.56, 26.40, 22.71
-24, -34.56, -24.27, 22.91, -6.50, 0.78, 6.37, 27.51, 17.88
-23, -29.41, -21.35, 19.13, 10.26, 20.16, 28.34, 50.43, 44.26
-22, -38.22, -36.19, 22.55, 2.75, 10.26, 20.92, 51.03, 43.59
-21, -32.10, -34.24, 20.09, 14.01, 25.24, 34.58, 58.29, 53.40
-20, -49.51, -44.77, 16.94, 4.11, 13.30, 24.25, 46.27, 40.57
-19, -50.94, -47.77, 22.04, 9.75, 24.88, 39.92, 56.46, 51.65
-18, -51.41, -49.20, 21.32, 3.33, 16.18, 32.63, 49.67, 42.83
-17, -34.42, -34.13, 29.26, 12.38, 26.96, 39.07, 60.73, 55.66
-16, -29.08, -29.33, 31.83, 17.81, 31.29, 39.29, 59.43, 53.02
-15, -36.08, -32.03, 31.72, 18.84, 32.45, 38.74, 57.76, 54.18
-14, -51.50, -40.84, 30.17, 21.01, 30.87, 37.10, 54.14, 47.86
-13, -45.78, -39.54, 38.49, 19.13, 27.85, 35.47, 54.34, 44.12
-12, -46.29, -36.32, 38.18, 26.29, 38.53, 37.57, 57.40, 48.59
-11, -51.61, -42.36, 42.80, 16.99, 31.96, 27.56, 49.55, 38.53
-10, -47.32, -39.83, 36.70, 24.32, 43.43, 39.43, 56.19, 46.09
-9, -55.92, -53.15, 39.00, 12.14, 31.18, 22.24, 47.79, 29.86
-8, -51.45, -55.72, 28.14, 20.81, 38.82, 33.08, 45.31, 35.38
-7, -60.53, -65.22, 38.24, 10.73, 25.75, 22.96, 38.40, 23.92
-6, -53.60, -57.78, 37.10, 28.21, 41.10, 37.19, 49.93, 38.89
-5, -57.51, -59.10, 50.63, 21.06, 36.97, 29.57, 45.26, 34.98
-4, -51.72, -42.65, 55.01, 43.56, 60.89, 52.64, 62.16, 60.68
-3, -52.08, -49.80, 55.57, 37.19, 48.68, 38.82, 55.77, 49.58
-2, -42.49, -40.12, 46.76, 40.14, 57.44, 50.65, 58.72, 53.58
-1, -52.10, -51.16, 43.72, 21.23, 35.54, 35.14, 40.90, 37.46
0, -45.89, -39.25, 40.95, 27.56, 45.15, 50.58, 51.54, 50.47
-29, -52.08, -42.02, 41.13, 13.48, 31.36, 33.04, 42.65, 37.62
-28, -46.36, -32.16, 46.92, 28.90, 49.71, 45.84, 57.89, 50.69
-27, -62.43, -45.69, 40.77, 20.99, 38.33, 32.07, 43.56, 42.38
-26, -55.07, -46.85, 40.84, 27.25, 42.13, 36.90, 40.79, 39.23
-25, -57.42, -42.62, 51.16, 35.85, 43.47, 43.38, 48.21, 50.58
-24, -60.71, -39.18, 51.59, 26.42, 43.27, 41.89, 55.59, 56.55
-23, -57.00, -33.21, 61.42, 34.60, 47.99, 41.57, 65.47, 60.60
-22, -58.99, -40.52, 49.17, 31.90, 48.91, 42.47, 66.05, 61.53
-21, -55.25, -41.95, 57.89, 34.40, 55.19, 53.06, 69.69, 71.08
-20, -56.55, -40.46, 58.76, 32.16, 50.98, 52.41, 67.50, 66.92
-19, -58.63, -40.88, 51.77, 35.65, 53.15, 56.62, 62.92, 67.28
-18, -64.31, -57.65, 61.27, 26.93, 47.10, 47.70, 62.96, 61.78
-17, -61.69, -62.27, 51.36, 41.24, 51.21, 52.95, 67.35, 66.81
-16, -60.75, -64.42, 58.99, 31.27, 44.17, 44.68, 60.89, 58.18
-15, -56.17, -52.15, 51.21, 32.39, 54.11, 54.99, 62.38, 67.97
-14, -61.04, -46.60, 57.51, 21.55, 41.22, 36.90, 56.59, 54.43
-13, -50.87, -40.48, 51.90, 33.51, 54.96, 53.91, 65.13, 69.63
-12, -56.62, -59.14, 52.35, 17.28, 40.32, 35.43, 59.88, 58.61
-11, -57.02, -58.72, 46.69, 35.05, 47.61, 45.80, 67.95, 69.85
-10, -61.74, -59.19, 53.02, 20.70, 34.35, 31.16, 59.23, 60.62
-9, -55.88, -42.49, 55.05, 32.59, 51.59, 46.67, 71.61, 76.22
-8, -56.73, -43.47, 59.93, 21.39, 42.60, 33.26, 66.27, 66.36
-7, -44.35, -34.60, 64.86, 47.07, 58.36, 50.60, 76.09, 78.50
-6, -53.55, -48.46, 59.21, 23.34, 47.05, 44.26, 65.89, 70.23
-5, -63.43, -49.89, 50.98, 23.51, 45.53, 45.58, 59.72, 66.27
-4, -52.84, -47.54, 55.68, 23.34, 54.14, 47.34, 67.10, 70.16
-3, -51.54, -54.85, 46.72, 22.78, 42.24, 35.79, 54.11, 57.51
-2, -42.89, -58.87, 48.46, 28.79, 43.16, 35.20, 50.85, 54.94
-1, -42.36, -58.81, 47.88, 23.72, 35.32, 33.35, 46.38, 52.01
0, -36.43, -42.89, 54.52, 25.62, 38.04, 39.05, 51.19, 54.27
-29, -39.99, -35.65, 48.50, 26.22, 38.29, 39.32, 51.14, 55.01
-28, -41.37, -32.77, 53.11, 26.89, 38.20, 35.38, 50.18, 51.68
-27, -48.70, -35.23, 45.44, 30.98, 43.03, 34.89, 45.40, 49.20
-26, -51.30, -44.41, 54.07, 23.25, 42.92, 27.54, 43.00, 40.95
-25, -47.01, -43.72, 49.42, 24.21, 52.71, 34.51, 51.83, 51.03
-24, -46.38, -45.20, 57.02, 20.50, 42.49, 26.51, 51.61, 43.74
-23, -40.68, -35.85, 50.74, 26.51, 45.66, 37.39, 52.88, 48.86
-22, -48.95, -57.24, 53.15, 15.89, 32.16, 24.07, 46.49, 35.05
-21, -49.15, -53.89, 53.69, 31.85, 44.52, 33.97, 51.81, 44.97
-20, -50.63, -46.20, 64.06, 21.03, 41.42, 20.45, 53.91, 36.79
-19, -41.98, -36.12, 59.30, 31.74, 57.98, 33.62, 62.32, 48.53
-18, -45.08, -34.44, 68.51, 18.71, 54.58, 20.12, 64.89, 43.25
-17, -33.59, -20.41, 65.00, 38.20, 69.22, 36.52, 69.49, 52.73
-16, -40.03, -38.89, 66.41, 27.14, 59.57, 18.80, 59.75, 39.27
-15, -32.95, -32.66, 58.67, 45.40, 68.08, 33.77, 64.95, 49.42
-14, -39.90, -34.33, 58.56, 18.82, 53.96, 23.40, 57.20, 41.33
-13, -36.37, -25.08, 56.39, 39.23, 65.96, 36.34, 62.67, 53.62
-12, -46.85, -41.08, 51.88, 21.75, 48.08, 26.11, 50.94, 42.36
-11, -43.83, -41.04, 53.40, 27.27, 56.24, 35.11, 53.22, 48.73
-10, -51.45, -46.25, 56.44, 21.82, 46.20, 23.85, 52.33, 42.07
-9, -36.99, -37.42, 58.34, 34.40, 53.40, 33.97, 60.77, 50.76
-8, -40.28, -44.21, 54.76, 24.83, 49.02, 29.48, 60.10, 48.86
-7, -41.24, -29.26, 56.71, 27.98, 54.61, 31.63, 62.09, 52.66
-6, -40.88, -34.13, 47.27, 24.16, 44.21, 21.95, 46.67, 40.66
-5, -39.32, -36.03, 50.40, 27.63, 40.81, 26.22, 48.64, 43.07
-4, -48.21, -31.81, 47.25, 26.71, 42.69, 29.86, 50.25, 45.17
-3, -39.54, -30.69, 56.48, 26.38, 44.55, 32.59, 55.19, 46.92
-2, -34.76, -34.58, 51.05, 26.24, 42.71, 26.80, 52.33, 44.44
-1, -34.58, -27.83, 38.82, 24.43, 41.80, 29.19, 45.82, 43.92
0, -36.43, -30.67, 41.48, 15.42, 28.30, 16.72, 37.35, 32.32
-29, -37.71, -27.22, 38.02, 22.28, 40.66, 33.15, 46.63, 46.60
-28, -51.54, -35.74, 46.45, 14.26, 29.01, 27.02, 41.26, 37.57
-27, -42.45, -31.49, 42.45, 31.69, 44.06, 38.53, 48.35, 47.79
-26, -49.73, -50.94, 43.36, 17.12, 31.07, 21.57, 39.72, 35.72
-25, -46.22, -43.85, 43.09, 25.50, 44.86, 35.00, 49.31, 49.24
-24, -50.45, -42.29, 43.94, 12.92, 32.72, 18.24, 40.86, 38.60
-23, -43.52, -23.56, 41.75, 27.94, 43.90, 29.30, 46.65, 48.46
-22, -47.32, -30.58, 46.31, 12.38, 27.89, 19.42, 39.76, 38.27
-21, -40.90, -22.15, 44.01, 27.29, 44.55, 39.72, 50.34, 51.14
-20, -45.96, -33.55, 44.68, 14.98, 35.09, 22.71, 42.80, 40.79
-19, -49.69, -31.76, 47.43, 11.91, 30.62, 19.22, 39.00, 36.28
-18, -35.05, -19.00, 43.12, 22.40, 37.55, 26.20, 44.08, 42.09
-17, -37.46, -27.63, 35.16, 10.37, 21.88, 13.72, 30.47, 29.57
-16, -31.54, -22.73, 32.05, 21.70, 26.78, 20.25, 31.76, 30.98
-15, -33.91, -25.79, 32.05, 9.39, 23.89, 15.33, 30.67, 29.62
-14, -32.88, -17.57, 34.82, 16.45, 29.73, 19.56, 32.99, 29.30
-13, -38.58, -23.98, 30.20, 12.36, 24.14, 12.25, 22.40, 19.87
-12, -39.63, -26.82, 32.61, 8.43, 26.00, 14.28, 24.79, 20.90
-11, -45.89, -24.92, 28.92, 16.50, 23.07, 15.31, 21.08, 20.36
-10, -29.17, -12.92, 31.14, 18.44, 15.67, 13.99, 21.06, 18.40
-9, -20.41, -6.93, 35.63, 10.28, 10.28, 11.15, 20.85, 13.97
-8, -21.48, -4.05, 25.68, 16.03, 11.53, 10.10, 18.08, 14.95
-7, -25.48, -13.30, 26.96, 20.12, 12.14, 7.82, 17.03, 14.66
-6, -24.61, -3.22, 27.49, 20.76, 14.69, 8.00, 14.75, 11.20
-5, -34.65, -9.59, 27.58, 7.26, -1.30, -2.88, 7.69, 0.47
-4, -36.88, -1.32, 18.86, 19.11, 7.22, 7.62, 11.24, 9.14
-3, -37.98, -11.49, 25.88, 9.07, -9.19, -5.65, 5.07, -1.77
-2, -20.00, -4.78, 25.73, 24.30, 7.26, 8.47, 15.60, 12.36
-1, -16.58, -8.99, 26.06, 13.88, -4.60, -6.06, 5.72, -0.16
0, -7.82, 4.54, 29.44, 18.10, 14.89, 16.21, 16.83, 12.94
-29, -21.70, 5.65, 31.25, 10.39, 4.09, -1.83, 9.63, 2.86
-28, -15.76, 7.44, 27.63, 17.39, 11.27, 13.28, 14.31, 13.32
-27, -21.14, -9.95, 30.31, 5.68, 4.45, 3.22, 9.50, 6.84
-26, -14.69, -0.83, 28.43, 20.81, 11.11, 8.11, 15.60, 12.56
-25, -24.63, -1.86, 29.82, 13.23, 5.74, -4.22, 13.39, 4.90
-24, -20.85, 0.45, 28.92, 16.21, 12.11, 5.86, 18.26, 8.81
-23, -23.83, 1.43, 29.21, 6.84, 4.85, -9.54, 10.37, -3.35
-22, -16.74, 7.71, 37.01, 14.71, 13.41, -3.58, 17.26, 4.54
-21, -17.99, -2.53, 34.73, 13.50, 14.53, -2.28, 16.05, 3.62
-20, -17.93, 3.22, 42.96, 17.95, 17.21, 3.73, 21.97, 8.65
-19, -18.57, 3.33, 32.30, 17.66, 7.82, 1.10, 17.14, 8.38
-18, -15.04, 14.01, 19.18, 15.65, 1.56, -4.36, 5.61, -0.85
-17, -16.88, 5.92, 18.73, -2.57, -11.98, -17.19, -4.09, -12.72
-16, -16.07, 9.01, 5.45, 2.10, -17.08, -19.49, -15.20, -17.61
-15, -10.42, 11.51, 18.26, -7.22, -27.49, -25.53, -17.37, -25.26
-14, 5.07, 17.70, 14.01, -0.54, -15.56, -15.85, -11.56, -15.98
-13, 10.26, 11.49, 17.32, -7.96, -24.86, -23.54, -15.31, -22.11
-12, 18.53, 20.56, 18.17, 8.65, -2.46, -2.08, -1.48, -1.86
-11, 5.77, 14.91, 25.86, -0.87, -6.75, -15.20, 1.59, -1.65
-10, 5.45, 22.04, 21.66, 15.49, 1.97, 6.08, 6.59, 11.13
-9, -1.74, 14.28, 25.15, 4.18, -12.76, -9.21, -3.87, -4.09
-8, -2.24, 25.44, 25.32, 20.03, 3.35, 5.48, 4.65, 5.99
-7, -6.44, 15.53, 30.11, 5.77, -8.31, -4.63, -3.69, -3.69
-6, -5.25, 20.38, 23.63, 16.99, 2.19, 3.46, -0.63, 1.25
-5, -13.46, 10.82, 27.96, 4.34, -11.80, -11.73, -8.38, -8.11
-4, 0.92, 20.07, 28.81, 20.21, 3.38, 3.02, 4.31, 4.00
-3, -11.98, 10.48, 24.74, 7.35, -9.41, -12.09, -5.30, -6.73
-2, -2.75, 13.08, 24.97, 17.23, -2.64, -1.32, 1.56, 1.79
-1, 0.29, 17.95, 24.12, 19.42, -5.99, -5.88, 1.74, 2.21
0, -3.35, 16.99, 27.74, 19.07, -1.65, -3.89, 9.07, 6.12
-29, 0.69, 20.32, 29.30, 23.36, 8.92, 6.66, 14.93, 16.56
-28, 5.92, 28.63, 33.82, 21.86, 9.99, 5.79, 14.69, 14.26
-27, 6.79, 29.28, 26.02, 21.88, 9.03, 7.76, 12.92, 15.42
-26, 5.97, 29.08, 27.56, 17.21, 7.85, -1.36, 10.80, 9.99
-25, -3.93, 11.11, 27.11, 11.60, 5.34, -3.11, 16.90, 10.33
-24, -3.06, 9.05, 26.51, 11.02, 4.83, -0.25, 13.12, 9.41
-23, 2.21, 19.18, 24.48, 25.28, 11.51, 11.87, 18.06, 17.88
-22, 12.32, 28.88, 30.55, 24.94, 17.26, 18.84, 26.17, 24.54
-21, 9.50, 17.10, 33.86, 15.94, 4.92, 7.42, 21.23, 14.66
-20, 15.69, 25.95, 28.95, 27.25, 21.52, 22.80, 27.02, 26.73
-19, 10.08, 22.26, 33.15, 15.40, 12.32, 15.33, 21.64, 19.02
-18, 16.90, 30.49, 31.05, 27.92, 27.07, 24.92, 22.66, 20.52
-17, 11.29, 23.25, 36.55, 17.03, 10.59, 10.39, 9.97, 5.74
-16, 18.55, 32.03, 32.25, 24.54, 21.03, 24.65, 10.82, 13.50
-15, 5.03, 15.22, 33.39, 7.82, 7.89, 8.29, 1.59, 3.02
-14, 12.49, 19.85, 33.55, 25.53, 24.48, 22.33, 11.29, 11.38
-13, -1.21, 16.21, 37.73, 18.22, 15.51, 12.32, 11.38, 4.00
-12, 9.43, 30.96, 39.14, 30.11, 27.07, 24.68, 18.80, 10.82
-11, 25.79, 27.27, 44.84, 29.73, 29.37, 26.40, 17.14, 9.50
-10, 21.79, 24.16, 40.84, 27.00, 20.16, 20.90, 11.91, 10.59
-9, 17.75, 29.64, 41.06, 26.13, 23.63, 14.26, 21.84, 14.98
-8, 12.56, 34.24, 39.43, 27.45, 21.86, 14.91, 22.66, 16.23
-7, 15.20, 28.50, 32.70, 26.71, 15.83, 12.70, 13.39, 11.67
