%OpenBCI Raw EEG Data % %Sample Rate = 250.0 Hz %First Column = SampleIndex %Other Columns = EEG data in microvolts
-29, 7715.87, 47.03, 16367.22, 33514.58, 1802.49, 39369.40, -2371.94, 28161.54
-28, 10512.65, 49.13, 22372.75, 45692.55, 2429.34, 53677.77, -3239.68, 38392.02
-27, 10759.73, 62.65, 22839.41, 46739.66, 2513.10, 54903.03, -3301.24, 39270.42
-26, 8271.15, 50.34, 17556.18, 35915.98, 1928.98, 42191.04, -2540.01, 30180.80
-25, 7494.02, 29.86, 15942.29, 32547.38, 1726.96, 38238.00, -2315.44, 27350.46
-24, 8690.74, 48.66, 18457.73, 37718.12, 2015.59, 44311.23, -2677.31, 31692.80
-23, 8944.09, 44.93, 19027.99, 38886.69, 2068.41, 45684.08, -2766.59, 32674.25
-22, 7903.58, 46.85, 16811.01, 34364.64, 1832.55, 40363.54, -2441.79, 28870.78
-21, 7314.54, 34.38, 15557.13, 31794.53, 1681.59, 37343.97, -2274.27, 26707.04
-20, 7571.97, 44.88, 16066.01, 32856.46, 1754.46, 38592.00, -2345.30, 27602.10
-19, 7619.98, 36.08, 16181.97, 33058.72, 1746.27, 38829.69, -2375.21, 27768.55
-18, 7226.25, 42.71, 15315.59, 31297.91, 1657.58, 36760.90, -2246.82, 26288.04
-17, 6875.02, 36.25, 14601.75, 29848.83, 1574.75, 35061.14, -2147.47, 25074.54
-16, 6761.51, 51.16, 14345.55, 29345.80, 1565.58, 34463.39, -2097.17, 24650.75
-15, 6604.65, 31.69, 14042.86, 28693.80, 1511.51, 33700.10, -2064.00, 24103.11
-14, 6432.90, 37.62, 13669.25, 27910.80, 1476.51, 32780.59, -2001.53, 23444.34
-13, 6077.73, 44.88, 12888.44, 26370.74, 1404.99, 30969.43, -1892.75, 22147.07
-12, 5817.44, 36.68, 12358.37, 25257.31, 1329.88, 29663.67, -1822.11, 21212.61
-11, 5685.95, 39.88, 12089.43, 24678.20, 1306.17, 28984.53, -1770.55, 20728.85
-10, 5625.80, 38.65, 11958.72, 24430.68, 1294.79, 28695.21, -1751.55, 20522.81
-9, 5451.19, 49.13, 11552.48, 23618.01, 1264.57, 27740.72, -1684.61, 19841.75
-8, 5161.22, 40.39, 10951.44, 22386.14, 1198.70, 26297.03, -1600.79, 18811.38
-7, 5012.85, 35.11, 10647.34, 21742.99, 1156.55, 25543.73, -1560.69, 18273.53
-6, 4985.13, 35.79, 10574.70, 21616.35, 1152.95, 25391.20, -1553.36, 18165.73
-5, 4572.36, 30.49, 9701.97, 19844.81, 1063.97, 23309.27, -1421.41, 16677.10
-4, 4400.99, 18.64, 9364.55, 19122.61, 1015.95, 22460.01, -1375.35, 16066.75
-3, 4376.27, 31.85, 9285.88, 18976.47, 1018.73, 22287.01, -1362.85, 15942.96
-2, 4264.15, 31.96, 9053.62, 18501.47, 991.66, 21729.60, -1329.82, 15542.95
-1, 4037.44, 36.10, 8565.14, 17524.57, 937.99, 20578.53, -1255.72, 14723.61
0, 3860.77, 32.72, 8206.17, 16766.02, 876.50, 19691.30, -1216.94, 14085.51
-29, 3820.63, 41.17, 8089.25, 16542.14, 875.05, 19428.07, -1188.76, 13900.48
-28, 3728.29, 34.22, 7903.40, 16159.01, 847.11, 18979.98, -1164.64, 13578.77
-27, 3549.26, 44.23, 7506.27, 15361.97, 821.85, 18042.24, -1103.73, 12906.07
-26, 3302.40, 37.73, 6997.03, 14319.87, 770.64, 16817.67, -1031.26, 12026.91
-25, 3214.20, 19.85, 6837.67, 13981.30, 740.78, 16422.99, -1015.10, 11746.20
-24, 3078.95, 24.54, 6520.14, 13342.18, 718.54, 15668.35, -955.74, 11213.87
-23, 2914.80, 10.48, 6194.18, 12661.81, 667.74, 14867.86, -913.20, 10646.16
-22, 2840.01, 26.89, 6019.12, 12303.11, 658.84, 14444.99, -874.00, 10349.13
-21, 2759.90, 21.70, 5860.16, 11984.36, 634.52, 14073.08, -860.12, 10081.19
-20, 2642.89, 29.26, 5598.11, 11458.96, 615.81, 13455.57, -814.12, 9640.04
-19, 2503.93, 26.93, 5302.77, 10855.35, 576.76, 12749.66, -777.51, 9133.37
-18, 2421.01, 32.37, 5115.11, 10464.46, 563.13, 12291.45, -743.71, 8804.87
-17, 2343.51, 29.41, 4956.72, 10152.85, 542.63, 11925.82, -722.90, 8544.69
-16, 2125.00, 35.11, 4479.58, 9183.46, 492.19, 10785.56, -659.64, 7732.72
-15, 2038.99, 27.67, 4289.75, 8783.65, 470.68, 10318.37, -625.00, 7400.53
-14, 1968.16, 24.52, 4133.24, 8476.05, 458.50, 9958.10, -603.61, 7139.91
-13, 1877.81, 23.31, 3953.53, 8090.75, 436.95, 9507.02, -575.36, 6815.74
-12, 1770.06, 20.18, 3730.28, 7642.22, 420.57, 8979.77, -540.42, 6440.39
-11, 1668.09, 17.30, 3544.63, 7248.92, 391.76, 8519.48, -520.42, 6106.94
-10, 1594.53, 23.22, 3391.94, 6950.39, 379.44, 8164.60, -499.00, 5852.16
-9, 1514.69, 18.57, 3233.07, 6604.07, 349.89, 7759.76, -476.45, 5560.33
-8, 1447.83, 30.24, 3034.47, 6224.27, 335.99, 7306.54, -446.43, 5232.83
-7, 1364.69, 17.93, 2861.38, 5852.92, 303.04, 6864.29, -432.39, 4911.73
-6, 1310.95, 23.36, 2718.51, 5570.17, 295.91, 6529.52, -407.32, 4672.21
-5, 1228.83, 9.12, 2560.10, 5252.08, 262.14, 6155.85, -400.79, 4400.54
-4, 1150.85, 23.18, 2387.01, 4918.70, 249.33, 5762.82, -373.63, 4118.62
-3, 998.34, 24.23, 2084.43, 4298.02, 214.46, 5037.88, -340.35, 3596.46
-2, 855.83, 15.04, 1797.21, 3710.46, 181.65, 4348.15, -303.22, 3099.58
-1, 778.13, 8.36, 1647.75, 3397.78, 153.87, 3980.47, -289.05, 2837.69
0, 729.78, 19.78, 1517.64, 3142.39, 147.05, 3673.06, -261.20, 2623.07
-29, 675.31, 17.50, 1392.51, 2876.80, 120.54, 3361.50, -246.25, 2402.05
-28, 631.59, 27.81, 1269.38, 2616.29, 118.80, 3053.72, -218.49, 2183.47
-27, 556.74, 14.37, 1130.33, 2340.05, 95.78, 2730.89, -206.04, 1953.61
-26, 499.90, 14.98, 1011.66, 2099.28, 89.16, 2448.30, -184.38, 1749.72
-25, 444.49, 15.20, 895.10, 1857.70, 72.02, 2165.39, -172.35, 1550.03
-24, 387.15, 20.50, 778.51, 1617.46, 61.18, 1883.54, -155.37, 1348.86
-23, 330.92, 17.84, 662.08, 1373.05, 47.14, 1599.33, -136.35, 1146.49
-22, 281.92, 17.99, 552.87, 1144.01, 35.14, 1331.74, -117.82, 953.01
-21, 226.15, 16.85, 442.86, 929.41, 23.69, 1079.14, -100.05, 773.55
-20, 166.86, 10.21, 338.03, 707.43, 8.16, 819.39, -82.46, 586.51
-19, 120.65, 12.79, 228.14, 493.88, -1.79, 568.94, -67.75, 410.47
-18, 67.95, 8.67, 127.90, 279.44, -16.41, 319.23, -56.68, 229.06
-17, 30.09, 14.08, 23.87, 89.65, -16.09, 93.99, -41.73, 66.36
-16, -19.00, 7.02, -74.54, -118.58, -34.78, -149.78, -37.33, -109.99
-15, -52.84, 18.26, -172.26, -305.03, -34.18, -372.85, -17.37, -269.65
-14, -109.59, 15.60, -262.95, -507.97, -56.28, -609.04, -7.35, -436.13
-13, -135.63, 25.06, -352.76, -679.09, -56.86, -810.45, 11.29, -576.88
-12, -186.06, 14.15, -440.87, -869.21, -80.62, -1028.83, 15.51, -736.69
-11, -224.84, 20.23, -531.52, -1033.05, -73.00, -1225.21, 35.85, -875.54
-10, -266.77, 6.62, -609.53, -1217.07, -87.53, -1437.22, 46.31, -1028.36
-9, -295.13, 15.67, -689.93, -1363.64, -82.30, -1612.19, 66.88, -1155.99
-8, -350.45, 5.63, -770.31, -1536.82, -107.65, -1816.50, 69.09, -1300.92
-7, -372.74, 5.81, -839.46, -1679.73, -103.73, -1988.52, 93.83, -1419.02
-6, -422.69, -4.02, -913.29, -1843.15, -126.58, -2177.53, 101.52, -1556.22
-5, -487.69, 9.54, -1051.25, -2136.49, -141.84, -2520.87, 128.16, -1798.85
-4, -510.80, 24.25, -1120.74, -2269.35, -143.12, -2677.18, 146.09, -1910.94
-3, -539.93, 16.99, -1195.42, -2418.10, -163.95, -2852.95, 138.96, -2040.18
-2, -609.11, 4.22, -1308.85, -2675.03, -164.49, -3158.77, 157.74, -2261.48
-1, -639.57, 6.53, -1362.99, -2794.57, -166.83, -3303.39, 164.87, -2366.40
0, -676.48, 4.07, -1427.29, -2915.07, -173.99, -3447.22, 177.41, -2467.03
-29, -692.37, 6.01, -1477.92, -3031.39, -179.60, -3579.59, 190.64, -2560.01
-28, -709.78, 7.26, -1535.63, -3139.50, -183.35, -3707.44, 204.16, -2647.61
-27, -740.31, -0.07, -1585.32, -3251.91, -187.62, -3838.15, 214.46, -2743.25
-26, -766.46, 2.21, -1638.52, -3354.80, -188.81, -3954.29, 227.00, -2825.95
-25, -797.93, 4.20, -1689.88, -3467.20, -203.20, -4084.36, 229.80, -2921.51
-24, -820.71, 13.90, -1745.74, -3562.15, -199.74, -4197.25, 240.55, -2997.84
-23, -838.57, 14.10, -1785.95, -3670.22, -210.91, -4319.94, 245.87, -3084.88
-22, -844.49, 26.58, -1831.08, -3754.04, -203.58, -4418.83, 258.90, -3153.81
-21, -872.54, 15.15, -1877.08, -3856.88, -217.44, -4536.22, 257.63, -3237.94
-20, -890.34, 10.80, -1920.44, -3932.99, -208.45, -4628.11, 274.90, -3301.69
-19, -924.67, 1.86, -1961.88, -4031.09, -224.34, -4740.98, 278.53, -3383.61
-18, -947.76, 23.25, -2057.46, -4207.31, -246.67, -4952.45, 270.57, -3537.21
-17, -949.61, 35.03, -2103.01, -4281.12, -241.02, -5041.75, 280.22, -3599.61
-16, -970.36, 23.69, -2153.12, -4382.71, -267.68, -5155.21, 262.99, -3685.98
-15, -979.01, 28.05, -2188.55, -4451.62, -264.22, -5236.57, 272.74, -3743.54
-14, -1005.58, 15.49, -2221.23, -4536.44, -282.50, -5335.47, 269.72, -3813.41
-13, -1006.77, 36.23, -2254.82, -4594.02, -281.79, -5408.92, 278.61, -3867.68
-12, -1025.36, 38.15, -2292.53, -4671.80, -300.63, -5498.19, 272.27, -3933.84
-11, -1031.13, 42.20, -2315.13, -4720.26, -290.15, -5558.83, 288.14, -3974.30
-10, -1057.73, 39.88, -2350.02, -4783.61, -296.79, -5632.24, 293.48, -4026.80
-9, -1073.20, 41.31, -2381.20, -4837.50, -292.03, -5695.25, 301.59, -4073.20
-8, -1095.44, 36.99, -2414.75, -4897.85, -298.04, -5767.49, 299.78, -4123.92
-7, -1107.33, 37.55, -2432.74, -4947.20, -292.65, -5824.60, 308.97, -4166.57
-6, -1129.08, 28.97, -2462.36, -5000.73, -291.33, -5883.81, 313.77, -4207.87
-5, -1146.26, 25.03, -2477.87, -5052.32, -292.34, -5940.71, 323.83, -4245.22
-4, -1151.74, 24.77, -2502.99, -5098.14, -295.33, -5995.59, 327.54, -4283.11
-3, -1159.21, 22.24, -2517.72, -5148.34, -299.27, -6052.58, 333.51, -4324.53
-2, -1183.19, 25.97, -2584.98, -5266.29, -302.75, -6189.80, 350.72, -4418.72
-1, -1213.54, 9.23, -2606.46, -5315.65, -323.41, -6247.54, 346.56, -4458.59
0, -1212.83, 17.32, -2632.12, -5342.02, -321.82, -6286.14, 351.37, -4486.46
-29, -1225.37, 6.17, -2647.61, -5389.90, -335.23, -6346.98, 341.67, -4535.57
-28, -1220.58, 18.80, -2658.74, -5410.53, -322.49, -6372.68, 353.47, -4548.51
-27, -1232.59, 15.22, -2667.77, -5453.67, -329.96, -6423.00, 348.89, -4583.07
-26, -1226.10, 24.65, -2681.81, -5474.14, -312.72, -6447.63, 359.86, -4595.79
-25, -1252.28, 15.29, -2699.55, -5517.93, -325.44, -6492.94, 355.15, -4627.21
-24, -1256.32, 18.37, -2715.62, -5533.15, -313.37, -6511.73, 364.40, -4640.13
-23, -1275.75, 8.36, -2728.19, -5572.00, -319.94, -6554.02, 361.25, -4671.02
-22, -1264.68, 16.12, -2740.90, -5582.19, -315.65, -6569.80, 369.47, -4679.11
-21, -1279.32, 10.30, -2751.16, -5616.01, -337.24, -6605.14, 361.79, -4707.88
-20, -1269.58, 27.02, -2754.29, -5626.16, -326.49, -6615.20, 373.70, -4716.60
-19, -1280.93, 21.66, -2772.04, -5654.79, -340.95, -6649.22, 367.80, -4743.64
-18, -1286.99, 25.12, -2774.72, -5660.56, -328.10, -6657.22, 380.56, -4752.16
-17, -1298.14, 6.15, -2786.50, -5682.89, -328.66, -6681.11, 382.33, -4769.33
-16, -1293.16, 12.20, -2791.15, -5689.55, -318.74, -6692.25, 393.41, -4778.38
-15, -1299.19, 11.49, -2802.62, -5706.53, -318.80, -6714.26, 390.53, -4795.70
-14, -1289.76, 18.02, -2800.63, -5716.97, -314.38, -6723.43, 394.62, -4806.72
-13, -1299.69, 24.10, -2812.09, -5726.61, -310.09, -6734.38, 394.55, -4815.66
-12, -1308.45, 17.68, -2813.41, -5738.50, -307.58, -6751.99, 391.76, -4829.76
-11, -1312.02, 13.19, -2816.92, -5745.49, -304.16, -6763.32, 392.65, -4839.08
-10, -1312.43, 13.43, -2816.79, -5761.52, -303.02, -6781.43, 392.36, -4853.08
-9, -1304.78, 19.45, -2823.74, -5766.68, -297.23, -6790.68, 390.53, -4859.29
-8, -1304.02, 20.72, -2821.71, -5780.67, -309.59, -6804.65, 384.54, -4871.27
-7, -1304.36, 27.74, -2834.49, -5778.06, -312.83, -6800.70, 386.44, -4867.40
-6, -1321.93, 12.18, -2833.93, -5793.46, -331.88, -6817.46, 376.65, -4882.85
-5, -1319.51, 13.52, -2835.79, -5786.71, -328.28, -6813.48, 382.75, -4876.84
-4, -1335.02, 4.00, -2833.53, -5800.90, -340.51, -6827.14, 377.54, -4887.57
-3, -1322.51, 8.23, -2831.76, -5789.79, -322.51, -6814.93, 387.02, -4875.29
-2, -1333.35, 0.76, -2830.02, -5804.48, -331.48, -6828.32, 380.85, -4886.69
-1, -1316.70, 16.21, -2828.99, -5788.52, -313.95, -6812.36, 392.38, -4873.31
0, -1324.36, 4.52, -2827.83, -5801.64, -323.52, -6823.58, 385.77, -4882.16
-29, -1310.91, 13.08, -2820.86, -5785.50, -305.12, -6806.44, 400.03, -4864.61
-28, -1324.70, 2.55, -2822.98, -5794.89, -318.00, -6815.31, 392.94, -4870.74
-27, -1325.53, 12.38, -2816.59, -5778.51, -307.43, -6795.04, 402.73, -4853.28
-26, -1328.34, 1.25, -2818.38, -5783.40, -318.71, -6799.47, 397.73, -4859.22
-25, -1317.28, 7.20, -2812.61, -5767.42, -303.87, -6782.90, 403.58, -4847.87
-24, -1319.22, 2.17, -2812.41, -5767.73, -309.71, -6780.71, 400.30, -4844.83
-23, -1315.53, 7.06, -2804.70, -5754.12, -308.66, -6761.33, 398.06, -4830.44
-22, -1314.91, 11.76, -2795.26, -5738.92, -300.68, -6744.03, 401.97, -4817.29
-21, -1323.00, 7.47, -2794.33, -5733.27, -301.64, -6737.40, 397.24, -4813.27
-20, -1305.25, 3.98, -2786.75, -5722.00, -300.07, -6726.65, 398.00, -4803.61
-19, -1301.36, 4.83, -2786.21, -5711.43, -301.73, -6714.84, 395.20, -4794.43
-18, -1304.40, 3.67, -2777.70, -5701.55, -303.78, -6701.83, 396.05, -4786.60
-17, -1292.56, 14.13, -2777.43, -5687.78, -306.11, -6681.99, 393.14, -4774.44
-16, -1293.58, 16.00, -2763.12, -5679.60, -305.55, -6668.22, 395.83, -4764.88
-15, -1293.41, 8.18, -2761.47, -5658.50, -292.29, -6644.17, 401.55, -4743.78
-14, -1293.81, 3.13, -2752.35, -5654.16, -300.63, -6639.41, 397.06, -4737.97
-13, -1278.59, 9.68, -2747.39, -5630.90, -288.61, -6612.43, 403.31, -4715.86
-12, -1298.26, -6.62, -2735.79, -5621.71, -289.70, -6598.39, 405.10, -4706.47
-11, -1284.85, 5.43, -2734.69, -5592.45, -278.46, -6565.94, 414.18, -4682.49
-10, -1286.92, 2.68, -2737.51, -5593.75, -299.92, -6566.85, 396.68, -4690.11
-9, -1273.00, 11.44, -2735.07, -5568.91, -290.19, -6540.81, 396.74, -4672.48
-8, -1281.09, 6.35, -2735.50, -5569.58, -308.23, -6541.10, 379.71, -4677.68
-7, -1267.81, 24.90, -2727.92, -5539.90, -292.27, -6510.15, 384.34, -4655.49
-6, -1273.31, 21.19, -2720.50, -5532.91, -297.84, -6497.74, 379.53, -4648.60
-5, -1262.52, 30.89, -2709.05, -5497.25, -280.51, -6459.41, 394.02, -4618.50
-4, -1267.99, 19.76, -2703.47, -5491.53, -294.28, -6453.84, 382.04, -4616.28
-3, -1249.78, 27.74, -2696.69, -5465.49, -291.49, -6427.02, 379.09, -4598.58
-2, -1261.31, 14.86, -2683.33, -5459.52, -302.55, -6415.87, 372.56, -4589.42
-1, -1249.28, 10.44, -2669.98, -5426.67, -290.13, -6378.40, 377.79, -4561.10
0, -1261.44, 0.98, -2664.44, -5415.72, -296.79, -6364.97, 370.37, -4551.19
-29, -1251.63, 8.54, -2649.53, -5386.99, -287.40, -6334.73, 376.52, -4529.13
-28, -1250.38, 6.66, -2636.16, -5371.50, -286.97, -6314.77, 375.06, -4514.18
-27, -1237.73, 14.86, -2617.32, -5347.36, -277.81, -6287.54, 380.29, -4493.35
-26, -1237.19, 7.76, -2611.00, -5329.33, -283.31, -6265.53, 373.90, -4477.30
-25, -1223.29, 3.64, -2594.05, -5306.73, -279.55, -6237.92, 375.89, -4459.08
-24, -1220.92, 3.44, -2585.14, -5283.73, -276.27, -6214.28, 372.34, -4442.34
-23, -1223.36, 1.07, -2572.31, -5264.30, -282.46, -6190.72, 369.21, -4425.33
-22, -1212.22, 6.50, -2563.83, -5239.47, -276.40, -6163.67, 372.04, -4402.42
-21, -1208.09, 6.30, -2549.08, -5223.36, -277.85, -6140.00, 369.50, -4384.50
-20, -1201.67, 0.40, -2543.76, -5195.15, -271.64, -6106.12, 368.29, -4357.14
-19, -1206.30, -4.67, -2527.65, -5180.28, -278.12, -6090.85, 362.95, -4347.91
-18, -1187.59, 8.83, -2522.48, -5147.99, -270.01, -6053.95, 361.70, -4323.88
-17, -1196.78, 0.31, -2511.49, -5135.13, -283.62, -6037.03, 350.59, -4316.68
-16, -1188.78, -2.79, -2488.35, -5088.06, -278.44, -5981.04, 344.57, -4277.59
-15, -1171.01, 6.35, -2474.63, -5052.77, -260.33, -5943.37, 349.13, -4249.76
-14, -1167.88, -0.92, -2450.91, -5038.93, -266.79, -5929.56, 345.47, -4236.28
-13, -1148.79, 13.93, -2437.75, -5000.44, -251.93, -5887.00, 354.14, -4203.42
-12, -1154.78, 3.38, -2429.46, -4988.35, -268.96, -5870.86, 343.37, -4192.99
-11, -1145.55, -1.45, -2417.05, -4951.07, -254.61, -5825.87, 352.96, -4156.71
-10, -1143.16, -4.96, -2391.70, -4908.13, -252.44, -5772.25, 351.44, -4116.83
-9, -1149.37, -7.02, -2377.96, -4893.31, -258.30, -5750.68, 344.55, -4102.44
-8, -1118.75, 10.97, -2360.77, -4857.28, -248.55, -5711.25, 347.77, -4073.67
-7, -1114.35, 9.70, -2349.41, -4837.65, -258.36, -5684.34, 340.24, -4056.08
-6, -1101.81, 11.51, -2335.67, -4801.36, -248.42, -5642.54, 348.96, -4025.71
-5, -1096.96, 3.51, -2327.58, -4780.21, -256.55, -5619.09, 343.88, -4008.09
-4, -1096.06, -0.42, -2312.31, -4749.95, -254.52, -5587.44, 346.16, -3985.52
-3, -1109.38, -5.32, -2308.60, -4727.93, -261.25, -5558.63, 333.69, -3969.20
-2, -1093.34, -2.93, -2289.89, -4705.09, -257.22, -5530.80, 331.99, -3951.21
-1, -1083.17, -6.30, -2278.98, -4676.92, -249.24, -5497.77, 325.78, -3929.55
0, -1075.41, 0.31, -2260.19, -4653.43, -245.96, -5469.87, 325.80, -3908.58
-29, -1064.84, 2.08, -2252.54, -4620.95, -234.07, -5433.91, 333.11, -3879.10
-28, -1063.27, -5.79, -2241.01, -4598.67, -240.75, -5407.98, 327.32, -3862.60
-27, -1056.99, 0.74, -2234.62, -4568.92, -243.79, -5369.72, 323.09, -3837.08
-26, -1060.55, -2.28, -2219.39, -4552.83, -255.75, -5349.49, 313.55, -3826.93
-25, -1046.87, 2.66, -2208.96, -4517.02, -246.85, -5309.68, 315.81, -3798.90
-24, -1046.80, -0.34, -2190.56, -4500.21, -251.55, -5289.05, 311.16, -3781.85
-23, -1027.80, 9.05, -2181.44, -4461.52, -238.18, -5245.93, 314.76, -3748.16
-22, -1031.78, -0.78, -2167.25, -4447.39, -245.44, -5223.18, 305.32, -3735.78
-21, -1014.48, 2.77, -2159.38, -4408.03, -227.61, -5178.09, 308.86, -3704.53
-20, -1023.87, -10.82, -2147.87, -4395.87, -238.60, -5161.75, 298.26, -3694.45
-19, -1007.10, -3.17, -2128.69, -4357.16, -217.37, -5123.71, 304.27, -3666.67
-18, -1008.73, -16.61, -2124.76, -4344.26, -233.64, -5110.52, 291.04, -3656.39
-17, -984.95, -5.70, -2113.07, -4304.79, -231.77, -5067.90, 293.59, -3624.11
-16, -995.21, -8.43, -2098.52, -4287.73, -240.24, -5046.62, 286.10, -3609.65
-15, -977.71, 7.15, -2089.15, -4246.03, -229.64, -4996.17, 296.72, -3571.96
-14, -977.82, 4.81, -2077.06, -4230.22, -238.22, -4969.91, 288.23, -3555.09
-13, -966.71, 11.87, -2057.99, -4193.66, -222.69, -4928.07, 297.03, -3523.44
-12, -967.70, 1.50, -2048.02, -4175.51, -229.93, -4905.78, 287.69, -3509.25
-11, -949.41, -6.55, -2001.93, -4092.18, -226.24, -4812.35, 289.86, -3446.04
-10, -943.98, -2.12, -1990.29, -4066.09, -222.47, -4777.37, 289.50, -3420.35
-9, -933.14, 2.19, -1973.06, -4039.09, -214.80, -4740.63, 296.54, -3392.21
-8, -923.31, 5.25, -1966.39, -4009.41, -205.57, -4708.22, 297.35, -3366.06
-7, -914.05, 6.48, -1951.15, -3984.15, -200.45, -4677.10, 297.52, -3348.45
-6, -906.81, 8.16, -1950.03, -3954.89, -199.94, -4645.65, 289.63, -3325.54
-5, -904.82, 6.82, -1936.67, -3936.41, -208.43, -4622.97, 282.37, -3308.37
-4, -888.10, 15.69, -1925.92, -3905.27, -202.15, -4585.08, 283.00, -3280.43
-3, -893.76, 9.63, -1912.68, -3887.75, -207.22, -4564.20, 279.60, -3262.84
-2, -885.22, 0.36, -1890.18, -3836.50, -203.36, -4505.11, 272.58, -3221.36
-1, -879.09, 0.87, -1880.50, -3797.05, -193.59, -4465.16, 273.85, -3192.95
0, -861.48, -2.37, -1859.22, -3747.52, -201.48, -4407.54, 265.49, -3151.39
-29, -857.46, -0.51, -1845.83, -3735.07, -215.87, -4389.70, 259.01, -3140.20
-28, -839.71, 17.43, -1834.85, -3694.72, -200.07, -4345.20, 264.56, -3108.97
-27, -847.00, 13.95, -1817.02, -3677.80, -207.40, -4323.14, 261.31, -3091.65
-26, -837.48, 16.81, -1808.41, -3642.66, -194.46, -4283.06, 262.25, -3064.31
-25, -844.78, -2.86, -1796.81, -3630.53, -205.73, -4265.36, 251.21, -3052.69
-24, -834.32, -0.45, -1781.39, -3592.19, -193.48, -4222.38, 256.17, -3018.67
-23, -818.86, -6.37, -1764.13, -3578.00, -200.79, -4201.75, 247.43, -3003.34
-22, -802.94, 0.07, -1749.09, -3541.92, -188.02, -4162.43, 250.52, -2976.85
-21, -810.18, -0.18, -1738.05, -3520.31, -196.78, -4133.71, 242.99, -2960.26
-20, -796.68, 8.02, -1723.01, -3488.59, -184.07, -4098.77, 247.88, -2933.35
-19, -801.13, 0.80, -1712.28, -3467.67, -182.97, -4074.68, 240.88, -2915.54
-18, -791.70, 5.30, -1699.18, -3438.41, -181.59, -4040.23, 241.24, -2890.10
-17, -781.95, -0.40, -1688.34, -3415.88, -181.27, -4014.08, 240.04, -2868.06
-16, -769.30, 4.67, -1672.80, -3390.25, -182.86, -3986.03, 235.05, -2849.33
-15, -764.34, 4.90, -1664.40, -3364.23, -185.23, -3955.05, 233.91, -2827.85
-14, -766.17, 0.89, -1648.06, -3342.75, -190.24, -3931.47, 228.99, -2810.80
-13, -767.54, 4.07, -1643.75, -3312.15, -184.45, -3899.15, 225.44, -2786.08
-12, -747.98, 8.47, -1618.33, -3260.02, -177.47, -3834.13, 229.17, -2741.46
-11, -745.59, 5.05, -1603.18, -3245.18, -183.40, -3812.45, 225.64, -2726.51
-10, -730.05, 14.48, -1590.93, -3210.76, -168.40, -3772.06, 232.53, -2696.76
-9, -718.27, 1.50, -1570.59, -3161.61, -167.88, -3720.38, 219.38, -2664.55
-8, -722.34, -7.58, -1553.96, -3152.56, -179.04, -3705.56, 213.84, -2653.42
-7, -705.29, 1.34, -1544.24, -3114.11, -161.07, -3661.62, 222.02, -2621.61
-6, -712.08, 7.93, -1521.86, -3064.20, -157.51, -3599.12, 221.95, -2577.25
-5, -706.09, -3.71, -1514.96, -3055.24, -170.21, -3585.93, 211.22, -2568.57
-4, -684.79, 3.20, -1498.15, -3019.59, -158.59, -3547.74, 216.61, -2540.72
-3, -689.06, -6.37, -1485.07, -3009.48, -171.84, -3538.06, 206.57, -2534.17
-2, -670.80, 3.67, -1469.63, -2975.96, -160.89, -3503.39, 210.91, -2507.46
-1, -681.66, -3.17, -1462.94, -2963.89, -171.39, -3485.26, 202.64, -2498.54
0, -670.49, 7.76, -1445.67, -2929.80, -163.17, -3450.33, 209.01, -2471.66
-29, -674.89, 0.83, -1440.26, -2916.03, -173.32, -3432.29, 198.15, -2459.56
-28, -657.25, 1.90, -1424.39, -2888.38, -165.81, -3397.29, 199.74, -2435.89
-27, -661.84, 0.54, -1417.82, -2873.00, -167.84, -3377.59, 190.91, -2424.83
-26, -645.43, 6.82, -1389.61, -2826.29, -148.82, -3319.66, 192.58, -2380.86
-25, -638.01, -9.14, -1354.43, -2761.56, -153.31, -3244.24, 191.09, -2318.84
-24, -632.82, -7.42, -1344.57, -2730.91, -149.89, -3211.36, 196.49, -2293.51
-23, -629.81, -9.77, -1335.56, -2715.38, -160.37, -3194.04, 189.30, -2282.74
-22, -616.53, 0.49, -1336.97, -2691.93, -158.25, -3167.02, 184.27, -2262.51
-21, -609.38, -9.48, -1324.25, -2682.86, -163.23, -3153.79, 180.24, -2254.44
-20, -590.73, 6.17, -1325.23, -2656.12, -152.26, -3124.42, 177.61, -2234.01
-19, -590.73, 4.16, -1310.80, -2649.71, -166.12, -3113.02, 166.86, -2231.64
-18, -581.91, 10.46, -1283.35, -2603.62, -161.29, -3058.48, 164.69, -2192.71
-17, -573.68, 16.36, -1276.28, -2569.09, -143.03, -3019.68, 169.96, -2161.93
-16, -568.76, 7.44, -1238.60, -2521.37, -123.02, -2957.09, 185.27, -2110.76
-15, -577.03, -12.58, -1235.45, -2511.37, -133.22, -2945.04, 176.22, -2104.08
-14, -569.23, -4.02, -1225.03, -2481.07, -127.11, -2912.70, 173.72, -2078.96
-13, -576.85, -11.76, -1219.58, -2474.58, -143.68, -2905.46, 160.60, -2073.95
-12, -563.53, -3.84, -1208.49, -2444.19, -135.36, -2875.10, 161.27, -2054.46
-11, -566.57, -5.99, -1194.68, -2431.96, -141.71, -2857.65, 156.73, -2046.28
-10, -542.14, -9.50, -1164.06, -2385.24, -131.20, -2801.75, 163.95, -2002.40
-9, -529.16, -9.45, -1152.43, -2359.27, -127.23, -2775.57, 164.08, -1981.66
-8, -538.95, -11.89, -1145.88, -2347.20, -130.22, -2761.09, 150.56, -1973.61
-7, -529.83, -2.79, -1130.55, -2326.08, -127.72, -2735.54, 149.89, -1957.74
-6, -523.34, 0.78, -1120.72, -2303.01, -127.18, -2708.32, 153.11, -1938.99
-5, -515.01, 5.45, -1104.35, -2280.10, -128.43, -2681.20, 155.32, -1917.24
-4, -505.35, 0.38, -1093.65, -2246.04, -125.95, -2643.88, 160.42, -1881.19
-3, -510.42, -8.25, -1092.17, -2224.29, -119.81, -2618.15, 158.32, -1859.93
-2, -522.78, -11.13, -1075.63, -2215.30, -119.13, -2605.32, 155.79, -1852.07
-1, -509.02, -3.78, -1066.09, -2187.61, -106.39, -2573.38, 159.32, -1825.20
0, -497.55, -16.74, -1049.35, -2177.62, -116.65, -2557.40, 156.22, -1814.69
-29, -482.40, 0.16, -1037.57, -2145.12, -103.27, -2519.62, 163.93, -1785.59
-28, -481.46, -2.24, -1025.36, -2138.12, -103.82, -2509.68, 161.11, -1780.12
-27, -461.76, 12.99, -1022.55, -2105.13, -90.21, -2472.89, 163.93, -1755.48
-26, -467.08, 7.24, -1007.75, -2094.94, -101.92, -2457.06, 156.98, -1745.78
-25, -455.48, 17.30, -1002.65, -2064.65, -91.58, -2423.31, 158.50, -1722.83
-24, -463.51, 0.78, -1001.13, -2060.90, -110.35, -2416.27, 144.37, -1723.43
-23, -453.90, 5.52, -991.08, -2030.05, -99.49, -2380.95, 153.31, -1695.54
-22, -468.20, -2.26, -983.97, -2025.74, -111.89, -2376.03, 142.38, -1695.83
-21, -458.93, 2.12, -977.04, -1995.68, -94.55, -2343.27, 146.36, -1676.43
-20, -464.94, -3.80, -969.66, -1990.44, -102.55, -2331.47, 132.43, -1673.90
-19, -447.66, -16.32, -960.74, -1960.29, -98.68, -2297.11, 126.20, -1649.74
-18, -430.05, -0.60, -948.81, -1939.10, -97.54, -2276.46, 129.80, -1633.76
-17, -421.76, 7.62, -927.46, -1904.35, -107.47, -2238.66, 126.00, -1607.67
-16, -428.13, 7.47, -921.07, -1891.96, -111.33, -2223.42, 119.87, -1598.17
-15, -424.93, 7.64, -909.94, -1873.30, -106.64, -2203.12, 122.67, -1580.83
-14, -419.50, 0.80, -911.55, -1862.10, -107.94, -2192.24, 116.30, -1571.73
-13, -417.75, -6.48, -902.03, -1852.24, -114.22, -2178.71, 115.00, -1561.27
-12, -424.08, -4.78, -902.90, -1835.08, -117.06, -2160.30, 112.94, -1545.11
-11, -421.51, -6.95, -885.33, -1822.20, -119.25, -2144.60, 109.55, -1537.91
-10, -410.47, -10.01, -878.58, -1800.30, -111.98, -2118.48, 109.03, -1514.49
-9, -413.69, -6.28, -865.75, -1765.81, -112.18, -2074.82, 109.03, -1486.64
-8, -410.18, -12.29, -852.41, -1758.90, -116.09, -2061.14, 108.63, -1476.78
-7, -400.63, 4.98, -844.45, -1730.36, -103.00, -2029.27, 121.17, -1451.12
-6, -399.20, -0.65, -830.95, -1726.47, -109.93, -2024.49, 119.43, -1448.42
-5, -392.70, -1.70, -823.08, -1695.33, -104.20, -1986.33, 113.79, -1423.14
-4, -383.69, 5.19, -814.54, -1666.59, -88.78, -1953.77, 122.78, -1396.58
-3, -387.20, -0.45, -805.49, -1664.51, -99.82, -1951.46, 114.55, -1395.87
-2, -377.66, -1.07, -795.65, -1636.97, -86.23, -1922.56, 123.29, -1371.64
-1, -380.25, -21.17, -785.75, -1635.01, -98.39, -1914.38, 118.82, -1365.31
0, -367.91, -11.96, -774.22, -1606.84, -84.31, -1881.68, 131.41, -1340.72
-29, -378.68, -13.84, -773.37, -1602.71, -94.39, -1874.04, 121.93, -1335.61
-28, -354.07, 13.01, -751.04, -1554.97, -88.51, -1821.02, 122.17, -1294.72
-27, -358.77, -0.09, -745.21, -1549.15, -96.05, -1811.83, 116.01, -1290.84
-26, -346.27, 0.38, -733.81, -1530.22, -85.20, -1788.34, 116.03, -1274.92
-25, -352.62, -4.11, -728.26, -1516.79, -85.67, -1775.51, 110.42, -1263.19
-24, -345.98, -1.32, -714.41, -1497.07, -79.91, -1757.41, 114.62, -1249.51
-23, -340.62, -8.90, -708.57, -1483.40, -76.13, -1740.11, 114.73, -1236.50
-22, -342.27, -11.67, -690.76, -1467.48, -67.03, -1721.80, 120.59, -1224.14
-21, -333.40, -6.77, -686.73, -1448.48, -58.27, -1699.43, 125.26, -1207.37
-20, -333.96, -3.73, -680.61, -1441.46, -62.58, -1691.58, 118.84, -1206.50
-19, -321.46, 3.87, -671.89, -1419.60, -50.36, -1670.55, 121.82, -1188.93
-18, -320.12, 2.32, -663.60, -1412.14, -56.71, -1661.18, 122.11, -1179.52
-17, -320.86, 1.94, -665.30, -1391.60, -54.29, -1635.86, 125.04, -1160.99
-16, -326.34, -11.78, -655.08, -1391.31, -66.41, -1629.60, 117.86, -1158.02
-15, -312.57, 5.34, -653.97, -1369.09, -62.56, -1600.83, 119.36, -1139.92
-14, -321.04, -0.69, -652.72, -1374.90, -87.62, -1603.27, 99.44, -1147.23
-13, -309.04, 4.78, -642.12, -1349.26, -74.23, -1575.44, 106.15, -1124.31
-12, -313.95, -11.00, -631.44, -1349.89, -82.70, -1576.67, 99.06, -1124.14
-11, -312.99, -2.66, -618.50, -1319.92, -58.27, -1548.69, 112.27, -1100.64
-10, -326.76, -16.88, -609.20, -1319.13, -62.29, -1543.10, 107.98, -1098.25
-9, -292.47, -1.05, -598.98, -1292.49, -46.60, -1514.04, 111.96, -1080.17
-8, -295.74, -7.73, -598.60, -1289.34, -51.79, -1506.73, 100.90, -1077.26
-7, -280.16, 0.89, -597.26, -1265.87, -39.63, -1479.53, 104.34, -1057.64
-6, -290.95, -4.83, -593.75, -1263.07, -53.20, -1476.33, 94.61, -1053.80
-5, -277.77, 6.86, -581.75, -1239.05, -41.06, -1452.17, 101.95, -1036.79
-4, -278.97, 5.83, -578.66, -1237.28, -49.93, -1448.48, 97.03, -1033.19
-3, -276.16, 7.44, -568.76, -1214.37, -38.94, -1426.04, 104.09, -1017.41
-2, -288.94, -4.65, -571.96, -1210.88, -45.58, -1419.63, 97.65, -1012.94
-1, -283.62, -6.15, -570.82, -1198.81, -42.24, -1403.58, 97.70, -1002.90
0, -293.66, -8.02, -572.38, -1192.51, -46.13, -1397.83, 94.88, -998.77
-29, -277.03, -2.57, -559.37, -1181.98, -40.01, -1383.71, 98.71, -986.02
-28, -265.47, -0.96, -556.94, -1168.33, -41.37, -1368.06, 98.41, -972.30
-27, -262.28, -2.17, -549.58, -1142.46, -40.66, -1336.88, 102.33, -946.46
-26, -269.27, -13.70, -538.03, -1121.03, -57.33, -1309.48, 98.77, -925.79
-25, -261.69, -7.60, -535.88, -1104.38, -52.17, -1293.61, 98.50, -913.83
-24, -264.78, -10.86, -527.41, -1106.39, -62.47, -1292.56, 91.55, -915.39
-23, -251.05, -5.95, -526.81, -1086.90, -52.41, -1270.99, 92.51, -899.64
-22, -255.19, -8.67, -523.34, -1090.21, -62.43, -1273.38, 82.54, -907.03
-21, -249.74, 4.74, -523.16, -1065.49, -50.51, -1251.65, 87.17, -890.25
-20, -260.24, -9.72, -516.82, -1070.76, -64.48, -1250.94, 78.61, -893.27
-19, -242.23, -2.91, -514.89, -1049.32, -55.28, -1228.30, 79.55, -879.65
-18, -239.63, 2.66, -496.43, -1030.91, -47.88, -1202.72, 71.21, -864.10
-17, -245.31, -11.27, -491.00, -1033.08, -55.92, -1203.33, 62.52, -866.02
-16, -234.54, -6.68, -481.68, -1011.04, -35.45, -1181.96, 72.84, -848.63
-15, -224.19, -9.70, -470.17, -993.00, -44.57, -1158.36, 69.56, -831.69
-14, -232.46, -15.02, -470.28, -989.44, -61.89, -1156.66, 58.34, -831.86
-13, -224.46, -0.72, -460.60, -968.72, -58.61, -1137.66, 59.66, -818.43
-12, -224.64, -6.44, -459.62, -966.11, -68.80, -1133.61, 54.69, -816.02
-11, -222.22, -1.41, -455.33, -952.74, -63.72, -1117.50, 59.05, -805.29
-10, -223.45, 0.45, -455.82, -949.12, -68.13, -1109.79, 54.25, -801.31
-9, -223.65, -0.51, -450.83, -941.61, -70.30, -1097.81, 55.66, -795.74
-8, -213.97, -4.49, -449.52, -936.11, -62.67, -1085.74, 63.34, -786.60
-7, -210.49, -8.90, -441.34, -927.93, -55.63, -1076.86, 66.92, -781.33
-6, -207.18, -8.11, -440.93, -915.26, -47.52, -1064.70, 68.24, -768.14
-5, -208.74, -10.30, -432.42, -910.12, -49.06, -1060.34, 67.88, -763.51
-4, -213.62, -2.44, -435.26, -892.53, -44.73, -1044.41, 65.85, -751.40
-3, -214.53, -9.66, -425.11, -891.41, -55.07, -1041.66, 61.62, -747.91
-2, -202.73, -8.99, -422.09, -872.14, -44.84, -1017.23, 69.65, -729.47
-1, -212.43, -18.57, -418.98, -873.26, -51.01, -1015.71, 66.90, -729.49
0, -214.04, -13.43, -418.85, -853.01, -40.55, -996.15, 75.08, -712.08
-29, -220.37, -18.44, -416.59, -859.20, -52.62, -1003.46, 69.22, -716.33
-28, -199.60, -6.01, -414.96, -837.70, -35.90, -981.76, 77.72, -698.78
-27, -187.93, 0.09, -407.81, -818.99, -37.91, -961.08, 76.71, -683.83
-26, -191.44, -9.72, -400.34, -819.71, -49.75, -960.90, 67.01, -688.03
-25, -191.04, -16.29, -389.79, -807.61, -51.86, -946.17, 61.44, -679.02
-24, -171.15, -5.28, -382.30, -790.38, -37.77, -929.79, 65.67, -667.31
-23, -184.42, -16.18, -381.57, -796.93, -50.51, -932.09, 55.72, -669.81
-22, -182.12, -7.35, -377.39, -778.47, -42.07, -914.81, 62.16, -656.96
-21, -189.68, -16.99, -377.66, -780.14, -46.76, -914.61, 56.91, -656.81
-20, -177.29, -17.08, -353.45, -721.45, -38.00, -845.19, 52.24, -609.17
-19, -169.27, -12.09, -350.21, -708.46, -33.35, -831.78, 51.88, -599.09
-18, -171.37, -15.07, -349.42, -710.16, -46.47, -834.46, 42.45, -603.88
-17, -163.73, -9.72, -348.46, -698.87, -41.64, -822.43, 45.75, -589.93
-16, -165.58, -7.60, -340.86, -698.25, -49.35, -818.36, 44.97, -588.07
-15, -161.80, -1.77, -340.33, -678.78, -37.10, -796.35, 49.84, -572.92
-14, -152.35, -4.29, -330.56, -661.25, -32.39, -774.73, 55.39, -557.88
-13, -160.75, -17.12, -332.26, -669.93, -45.11, -782.60, 45.73, -566.35
-12, -154.38, -7.51, -332.12, -653.05, -30.49, -766.91, 52.26, -551.13
-11, -167.95, -19.89, -330.22, -662.10, -44.26, -778.44, 43.68, -560.43
-10, -164.60, -11.69, -322.25, -644.31, -49.46, -760.56, 35.92, -554.43
-9, -154.16, -2.79, -317.84, -624.71, -37.77, -738.81, 42.16, -536.67
-8, -156.42, -7.69, -314.11, -630.65, -45.91, -740.45, 36.08, -537.89
-7, -141.96, 8.27, -312.48, -611.97, -30.58, -719.82, 43.94, -521.26
-6, -152.19, -2.66, -318.94, -619.21, -42.18, -728.06, 35.61, -525.89
-5, -139.97, 4.34, -308.57, -605.84, -32.21, -713.85, 42.56, -515.83
-4, -144.82, -6.73, -302.89, -609.13, -41.69, -713.89, 35.54, -518.81
-3, -138.92, -4.22, -294.82, -600.39, -33.93, -703.59, 39.05, -510.40
-2, -145.04, -10.46, -287.44, -599.45, -33.30, -703.12, 35.27, -508.46
-1, -145.91, -14.80, -280.25, -591.29, -29.30, -693.89, 34.20, -502.04
0, -144.01, -20.41, -283.00, -590.85, -36.50, -694.09, 27.00, -502.98
-29, -141.33, -11.94, -275.49, -583.49, -36.08, -690.02, 29.26, -502.04
-28, -138.49, -6.79, -269.90, -574.06, -31.63, -680.77, 29.46, -493.88
-27, -120.95, 1.41, -266.77, -558.30, -22.55, -659.96, 37.66, -474.30
-26, -142.81, -20.07, -262.79, -554.41, -39.99, -655.35, 25.24, -477.52
-25, -130.56, -4.38, -258.16, -537.49, -25.75, -638.75, 31.78, -463.08
-24, -133.15, -13.63, -253.36, -542.01, -35.20, -643.69, 22.33, -465.74
-23, -114.93, -12.45, -250.79, -524.22, -26.91, -622.85, 28.65, -449.07
-22, -121.68, -16.96, -243.92, -528.40, -37.10, -624.22, 25.97, -451.08
-21, -112.70, -4.83, -245.62, -509.69, -26.58, -605.87, 31.31, -437.29
-20, -119.98, -8.45, -240.77, -516.53, -40.28, -610.98, 24.63, -443.37
-19, -102.13, 12.83, -235.07, -497.28, -20.90, -587.43, 39.34, -421.93
-18, -118.08, -2.48, -239.25, -507.54, -33.62, -595.12, 31.72, -428.89
-17, -112.99, -4.20, -237.26, -492.81, -20.79, -577.70, 38.24, -415.18
-16, -123.63, -16.05, -233.69, -499.72, -25.55, -580.39, 36.63, -416.01
-15, -120.70, -9.97, -233.82, -484.38, -12.47, -561.99, 45.84, -401.46
-14, -134.83, -16.14, -230.71, -491.54, -21.55, -567.22, 39.09, -407.41
-13, -118.13, -4.90, -224.90, -475.35, -11.82, -552.40, 46.31, -396.92
-12, -114.66, -10.71, -226.47, -479.74, -20.25, -558.15, 37.39, -402.24
-11, -95.82, -6.24, -222.60, -455.84, -15.56, -533.85, 36.39, -385.05
-10, -105.92, -3.29, -226.04, -453.27, -21.32, -527.93, 34.78, -381.45
-9, -109.41, 0.65, -222.74, -450.92, -23.22, -526.70, 32.83, -381.79
-8, -103.53, 4.49, -226.20, -449.94, -26.04, -524.68, 29.37, -381.66
-7, -105.23, -0.56, -221.19, -448.60, -30.78, -523.81, 26.29, -382.39
-6, -103.71, -6.03, -228.41, -439.82, -29.64, -512.77, 24.97, -373.56
-5, -107.02, -13.90, -217.68, -433.44, -40.88, -508.28, 23.65, -369.59
-4, -96.72, -9.75, -213.66, -418.45, -28.54, -493.88, 32.41, -357.34
-3, -95.51, -10.15, -206.66, -404.79, -18.53, -478.48, 38.09, -346.34
-2, -106.06, -15.02, -199.49, -412.21, -30.22, -489.37, 29.33, -355.17
-1, -100.76, -3.29, -196.40, -395.74, -15.24, -474.24, 36.57, -342.29
0, -111.83, -7.42, -188.11, -405.62, -25.21, -483.24, 27.67, -347.39
-29, -101.92, 3.38, -187.89, -387.31, -9.45, -464.51, 35.87, -330.90
-28, -107.13, -6.55, -185.83, -397.19, -20.25, -470.97, 28.97, -337.94
-27, -83.28, 5.07, -174.99, -376.27, -3.44, -445.85, 42.11, -317.80
-26, -78.68, 1.03, -182.14, -370.32, -8.00, -437.56, 39.70, -314.78
-25, -92.80, -12.38, -181.18, -376.72, -17.77, -438.65, 34.89, -316.28
-24, -104.09, -21.48, -184.94, -369.05, -23.74, -432.46, 19.22, -317.06
-23, -92.49, -11.65, -174.90, -358.39, -22.37, -422.94, 19.58, -311.96
-22, -90.41, -7.55, -175.53, -358.95, -28.05, -421.82, 13.55, -309.97
-21, -83.26, -0.67, -170.36, -351.44, -25.62, -414.54, 18.24, -304.39
-20, -84.49, -2.44, -173.36, -350.41, -28.27, -414.07, 19.92, -302.35
-19, -85.12, -1.34, -168.26, -347.61, -26.24, -410.87, 23.58, -299.51
-18, -93.74, -4.56, -167.15, -339.88, -20.14, -398.04, 27.34, -288.63
-17, -108.16, -6.66, -156.57, -335.66, -15.65, -392.30, 32.12, -283.71
-16, -81.85, -13.14, -143.48, -327.36, 0.16, -384.38, 37.77, -273.72
-15, -67.88, -5.50, -148.84, -319.50, 4.16, -383.53, 32.48, -270.30
-14, -68.58, -11.13, -150.34, -331.66, -11.24, -398.26, 22.17, -280.98
-13, -60.44, -6.46, -159.57, -325.69, -11.29, -390.86, 18.33, -275.66
-12, -77.83, -17.75, -152.53, -336.62, -23.78, -399.67, 13.57, -282.68
-11, -61.87, -8.90, -144.86, -317.13, -9.23, -376.87, 29.19, -263.06
-10, -64.31, -15.58, -144.91, -326.47, -19.69, -386.62, 23.47, -272.13
-9, -50.49, -1.61, -141.06, -310.58, -3.29, -371.22, 28.43, -259.10
-8, -61.67, -11.96, -137.02, -320.66, -12.70, -379.98, 22.69, -268.80
-7, -57.04, 2.08, -134.13, -301.70, 3.33, -359.86, 29.26, -255.01
-6, -49.96, -0.96, -124.23, -294.44, 7.78, -347.41, 37.15, -244.04
-5, -62.18, -5.83, -123.11, -299.78, -2.86, -348.17, 34.09, -243.14
-4, -54.69, -4.14, -120.19, -285.74, 7.40, -332.64, 40.34, -230.67
-3, -59.41, -18.98, -114.96, -292.34, -0.89, -338.81, 34.60, -234.87
-2, -59.41, -16.36, -110.51, -278.37, 9.97, -323.56, 40.97, -223.52
-1, -73.83, -19.87, -108.47, -279.33, 1.83, -323.85, 36.37, -222.29
0, -60.66, -9.70, -101.83, -269.29, 6.24, -314.40, 42.56, -212.65
-29, -66.99, -17.37, -107.94, -270.17, 5.41, -315.49, 40.95, -212.97
-28, -56.75, -9.52, -103.98, -267.71, 10.24, -311.29, 44.50, -210.44
-27, -43.61, -4.65, -105.95, -264.98, 9.83, -310.56, 44.32, -208.65
-26, -40.05, -3.93, -100.99, -262.68, 10.93, -310.78, 42.47, -211.54
-25, -41.71, -3.38, -101.59, -257.94, 11.53, -305.95, 42.69, -204.70
-24, -48.91, -4.45, -100.18, -261.25, -2.12, -311.76, 35.99, -208.32
-23, -52.01, -5.52, -106.10, -255.57, -0.42, -306.55, 33.73, -205.70
-22, -57.85, -9.54, -100.96, -260.96, -5.36, -308.77, 30.24, -209.46
-21, -46.94, -4.02, -101.86, -249.94, 7.35, -298.24, 33.80, -199.60
-20, -49.46, -16.14, -99.35, -259.32, -1.92, -308.92, 22.87, -210.35
-19, -55.21, -14.35, -89.03, -257.83, -2.08, -303.56, 23.51, -200.23
-18, -55.16, -3.87, -91.33, -243.88, 7.89, -285.68, 32.14, -184.94
-17, -62.25, -14.69, -83.98, -253.96, -2.75, -293.66, 29.57, -189.99
-16, -40.68, -8.34, -77.83, -232.53, 18.15, -270.63, 48.70, -168.04
-15, -48.48, -17.52, -78.54, -242.96, 6.59, -276.94, 43.05, -173.02
-14, -32.68, -5.92, -77.18, -226.49, 18.69, -258.21, 54.40, -159.17
-13, -42.04, -5.05, -75.75, -236.19, 6.30, -262.45, 47.65, -167.97
-12, -30.89, 15.24, -71.55, -220.08, 21.10, -241.02, 55.52, -155.52
-11, -35.36, 2.75, -73.56, -228.32, 11.87, -250.36, 49.53, -165.45
-10, -28.01, 12.67, -73.72, -216.05, 17.03, -239.88, 51.19, -161.40
-9, -39.03, 6.10, -74.45, -220.16, 4.94, -245.40, 39.45, -170.36
-8, -33.48, 10.15, -74.32, -208.61, 11.02, -237.44, 41.60, -168.04
-7, -47.43, -1.90, -82.68, -213.37, -1.68, -246.63, 29.84, -179.51
-6, -43.16, -4.54, -79.42, -205.48, 3.31, -240.93, 30.20, -179.26
-5, -41.57, -5.43, -79.75, -206.62, -0.25, -242.92, 25.97, -180.91
-4, -34.42, -1.14, -78.68, -202.89, 2.19, -241.13, 23.47, -182.19
-3, -46.72, -4.52, -84.82, -204.76, -2.95, -244.80, 12.49, -187.26
-2, -40.57, -16.72, -83.17, -203.80, -4.85, -246.45, 5.12, -185.72
-1, -50.83, -18.26, -74.05, -206.66, -15.71, -246.43, 3.29, -185.30
0, -36.03, -2.97, -74.61, -196.81, -8.38, -232.79, 8.65, -172.51
-29, -39.18, 2.59, -71.12, -201.41, -11.60, -237.20, 5.50, -177.09
-28, -32.52, 10.91, -71.12, -189.81, -0.72, -224.08, 11.73, -166.19
-27, -42.47, 0.49, -74.07, -199.22, -10.37, -239.07, 3.73, -180.54
-26, -35.36, -3.17, -73.27, -187.78, -1.92, -228.86, 8.56, -170.45
-25, -38.91, -14.62, -72.26, -199.53, -15.47, -242.11, 1.07, -179.10
-24, -25.70, 0.87, -74.54, -184.22, -3.53, -225.39, 9.70, -163.26
-23, -34.47, -9.25, -72.04, -195.20, -13.63, -234.87, 5.07, -167.77
-22, -51.52, -11.13, -79.06, -192.09, -12.05, -231.94, 6.10, -166.54
-21, -39.76, -6.71, -81.67, -180.96, -1.27, -218.98, 12.16, -158.05
-20, -49.80, -11.04, -84.69, -192.90, -13.34, -229.40, 7.71, -167.26
-19, -32.86, 3.93, -86.17, -178.34, 0.36, -210.87, 15.71, -153.67
-18, -32.23, -1.99, -83.68, -186.53, -7.60, -218.20, 15.76, -156.28
-17, -26.13, 11.11, -83.08, -169.81, 2.35, -204.23, 22.64, -146.25
-16, -42.65, 1.70, -90.08, -176.36, -7.96, -210.93, 15.65, -151.66
-15, -37.26, 2.03, -90.03, -167.10, -2.82, -200.09, 17.88, -143.95
-14, -46.51, -7.51, -91.58, -173.47, -12.09, -203.22, 14.53, -144.75
-13, -36.41, -3.87, -86.84, -166.74, -7.47, -195.04, 18.37, -140.50
-12, -30.13, -9.19, -85.79, -169.23, -8.16, -197.12, 15.56, -140.01
-11, -29.79, -9.66, -77.85, -164.69, -6.46, -193.30, 15.27, -137.91
-10, -32.59, -1.54, -78.25, -158.12, -6.26, -185.12, 12.36, -135.63
-9, -31.09, 6.12, -69.89, -155.30, -3.80, -178.37, 14.73, -132.48
-8, -36.37, 4.85, -64.75, -143.45, 5.23, -163.03, 24.99, -115.98
-7, -39.74, 4.05, -56.37, -141.60, 2.50, -160.40, 27.94, -115.09
-6, -26.62, 9.68, -67.32, -138.09, 4.81, -160.69, 23.49, -114.84
-5, -31.74, 4.27, -70.68, -148.42, -9.92, -172.71, 11.96, -127.23
-4, -29.75, 17.93, -79.64, -143.30, -7.35, -168.26, 4.76, -130.11
-3, -27.56, 25.62, -79.21, -145.69, -11.67, -169.02, -0.47, -135.12
-2, -34.71, 18.44, -73.09, -156.08, -23.22, -177.88, -7.00, -141.71
-1, -28.27, 25.32, -80.11, -140.23, -13.41, -162.61, -1.59, -129.89
0, -37.10, 5.50, -77.09, -148.86, -27.58, -171.30, -8.67, -138.89
-29, -25.41, 19.07, -77.99, -128.79, -14.22, -151.79, 1.68, -121.82
-28, -39.38, 14.48, -78.75, -137.46, -22.84, -162.65, 0.09, -128.01
-27, -26.53, 27.38, -77.52, -122.13, -9.70, -147.43, 9.16, -112.32
-26, -33.10, 23.72, -76.49, -133.71, -20.32, -160.71, 1.56, -120.54
-25, -17.64, 32.97, -75.30, -122.73, -4.54, -150.74, 8.29, -113.28
-24, -31.07, 16.47, -74.30, -131.05, -12.20, -155.34, 3.24, -117.82
-23, -19.83, 21.82, -72.29, -121.21, -3.98, -148.77, 10.10, -111.20
-22, -31.25, 19.51, -79.15, -131.74, -17.03, -157.87, 1.23, -119.00
-21, -31.31, 22.98, -77.96, -124.39, -10.95, -148.66, 9.41, -109.68
-20, -41.46, 13.08, -71.08, -120.59, -5.61, -140.84, 15.11, -101.48
-19, -41.06, 3.13, -77.63, -119.87, -10.08, -143.54, 5.59, -104.34
-18, -34.67, 2.41, -68.49, -115.22, -8.65, -140.50, 7.62, -103.29
-17, -31.18, 7.24, -74.25, -113.61, -11.65, -141.40, 3.64, -105.19
-16, -30.58, 10.80, -65.69, -113.84, -14.80, -144.62, 4.20, -108.00
-15, -41.35, 5.28, -58.54, -115.36, -11.42, -141.46, 9.05, -100.36
-14, -28.77, 8.87, -56.21, -106.39, -5.52, -132.10, 12.94, -89.70
-13, -28.25, 1.10, -51.34, -113.57, -15.80, -139.94, 7.98, -94.41
-12, -13.81, 5.63, -56.37, -105.63, -10.08, -132.64, 11.58, -84.69
-11, -18.66, 5.52, -56.39, -116.99, -21.57, -141.44, 6.48, -91.42
-10, -24.30, 11.44, -64.19, -105.57, -10.21, -127.45, 13.79, -77.31
-9, -36.66, 0.34, -64.78, -121.66, -18.62, -136.95, 8.67, -86.88
-8, -31.25, 11.89, -67.68, -106.60, -2.08, -120.36, 17.90, -75.75
-7, -39.81, 6.06, -61.24, -113.44, -12.67, -127.85, 14.91, -82.14
-6, -25.30, 16.21, -65.62, -98.41, -1.99, -116.27, 18.46, -72.37
-5, -30.22, 3.73, -62.79, -107.91, -15.87, -127.61, 9.70, -81.34
-4, -20.99, 15.31, -59.57, -91.17, 2.73, -104.78, 22.37, -65.33
-3, -31.23, 5.79, -61.13, -102.46, -8.09, -112.50, 16.41, -73.25
-2, -31.25, -4.76, -63.86, -99.20, -6.68, -111.85, 14.46, -75.53
-1, -25.26, 1.16, -63.03, -91.49, 3.29, -104.14, 17.52, -67.61
0, -31.00, -2.10, -63.88, -102.77, -9.10, -112.50, 6.41, -77.38
-29, -12.65, 12.41, -53.13, -96.63, -0.69, -102.93, 13.68, -70.45
-28, -19.83, 11.60, -60.80, -103.31, -6.53, -108.70, 9.03, -75.91
-27, -15.07, 18.60, -61.04, -101.54, -6.21, -109.72, 7.98, -77.31
-26, -31.31, 6.82, -66.83, -104.09, -9.43, -117.75, 5.48, -78.95
-25, -38.00, 4.72, -62.65, -102.80, -3.96, -118.17, 6.66, -80.42
-24, -47.07, 0.78, -71.82, -102.30, -7.69, -113.82, 2.79, -78.28
-23, -35.03, -5.79, -67.23, -102.95, -16.74, -115.22, 2.01, -80.67
-22, -23.51, -7.09, -66.56, -94.97, -12.14, -108.27, 9.81, -74.19
-21, -35.34, -8.34, -65.56, -96.98, -16.65, -113.84, 4.94, -78.59
-20, -34.78, -4.18, -61.56, -89.99, -7.49, -108.94, 8.76, -72.53
-19, -38.18, -2.57, -48.88, -95.84, -8.16, -109.77, 8.47, -75.71
-18, -26.24, 7.35, -53.93, -85.96, 3.87, -96.34, 9.34, -67.61
-17, -29.17, -7.06, -49.24, -97.12, -8.02, -106.55, 6.17, -74.41
-16, -15.45, -0.80, -53.33, -82.88, 1.05, -93.94, 15.11, -60.13
-15, -34.91, -12.05, -51.45, -92.65, -14.98, -106.80, 9.48, -68.58
-14, -27.22, -9.10, -52.06, -78.37, -5.48, -95.49, 15.20, -58.36
-13, -35.32, -12.36, -56.82, -94.41, -24.59, -110.33, 0.20, -73.49
-12, -23.69, 2.97, -58.16, -81.65, -14.93, -97.14, 5.34, -65.42
-11, -37.04, -0.80, -52.66, -90.82, -21.48, -109.68, -0.29, -74.21
-10, -20.97, 3.60, -46.25, -77.43, -6.08, -95.82, 8.81, -64.95
-9, -25.86, -6.19, -49.62, -86.70, -17.52, -104.49, -0.13, -73.27
-8, -20.38, -3.06, -49.84, -75.64, -10.62, -92.38, 6.21, -64.51
-7, -32.63, -9.90, -47.32, -81.27, -19.18, -94.57, 7.06, -62.76
-6, -29.28, -2.41, -41.17, -69.13, -10.15, -83.13, 16.16, -53.69
-5, -34.18, -7.00, -47.01, -74.34, -13.01, -88.20, 11.98, -58.79
-4, -24.74, -2.26, -40.17, -69.83, -6.59, -87.55, 15.65, -59.39
-3, -27.29, -5.16, -45.15, -71.21, -13.14, -89.36, 8.05, -64.22
-2, -24.30, -1.61, -39.25, -70.92, -11.78, -87.95, 8.52, -66.27
-1, -32.03, -8.00, -42.94, -69.58, -12.20, -88.54, 6.08, -64.31
0, -35.07, -8.65, -34.51, -74.39, -13.81, -89.94, 10.80, -61.91
-29, -32.54, 0.92, -37.39, -68.84, -5.39, -87.80, 13.75, -55.12
-28, -12.72, 2.44, -36.10, -64.95, -5.14, -87.86, 10.15, -56.24
-27, -19.69, 2.73, -26.96, -69.65, -7.02, -90.57, 10.62, -59.14
-26, -17.28, 4.74, -31.49, -59.01, 2.32, -79.75, 15.15, -51.45
-25, -24.59, -9.88, -28.36, -70.25, -7.49, -88.22, 11.94, -57.47
-24, -23.94, -10.53, -28.68, -71.93, -11.35, -86.84, 18.73, -51.95
-23, -10.46, -0.34, -31.58, -58.25, -1.61, -72.75, 24.90, -41.22
-22, -30.11, -15.18, -35.85, -72.02, -15.18, -88.31, 12.34, -55.37
-21, -30.13, -8.34, -29.64, -59.01, -4.05, -75.88, 16.85, -44.61
-20, -33.86, -7.71, -25.86, -69.65, -16.81, -85.96, 8.45, -54.47
-19, -12.56, 5.59, -23.89, -54.40, -3.11, -67.82, 18.10, -40.48
-18, -20.59, -0.22, -29.55, -66.18, -20.36, -77.47, 6.46, -49.96
-17, -4.74, 7.67, -23.85, -53.53, -7.67, -63.39, 13.68, -41.42
-16, -23.20, -9.43, -33.30, -62.88, -20.14, -74.52, 2.55, -52.26
-15, -28.21, -8.27, -29.28, -56.08, -14.60, -69.07, 2.55, -50.49
-14, -36.23, -14.64, -28.05, -62.96, -21.23, -77.00, -6.53, -59.61
-13, -31.34, -8.99, -29.33, -56.15, -15.11, -69.67, -5.86, -57.49
-12, -28.25, -4.11, -34.67, -57.80, -15.36, -74.57, -16.16, -63.17
-11, -42.85, -13.55, -40.43, -59.17, -17.72, -77.18, -19.74, -65.92
-10, -40.77, -13.34, -30.49, -57.87, -14.46, -73.43, -12.67, -62.16
-9, -43.07, -11.09, -35.36, -57.13, -16.88, -74.68, -16.47, -63.59
-8, -50.74, -18.42, -26.40, -61.15, -20.94, -77.31, -17.14, -66.63
-7, -47.01, -12.29, -31.58, -54.78, -16.23, -72.33, -16.72, -61.67
-6, -51.81, -19.42, -34.71, -60.08, -23.83, -77.78, -21.10, -65.69
-5, -51.12, -17.48, -43.50, -54.52, -16.36, -72.55, -15.00, -59.34
-4, -57.82, -23.20, -38.18, -62.41, -20.43, -78.83, -16.70, -65.24
-3, -53.51, -19.94, -43.79, -55.19, -12.72, -72.62, -10.17, -58.32
-2, -57.96, -26.40, -40.52, -68.44, -24.74, -86.70, -15.22, -69.07
-1, -46.51, -15.96, -47.25, -55.01, -14.69, -73.36, -10.33, -60.82
0, -55.63, -25.95, -42.00, -66.14, -26.00, -80.96, -12.14, -66.27
-29, -41.71, -13.61, -41.24, -50.89, -12.63, -63.37, -3.40, -51.81
-28, -36.57, -2.28, -32.70, -45.15, -6.28, -55.14, 2.68, -45.31
-27, -43.12, -18.22, -43.16, -57.38, -20.03, -72.17, -9.86, -58.09
-26, -27.38, -12.52, -43.36, -46.51, -8.78, -61.67, -7.33, -49.06
-25, -29.21, -20.72, -38.94, -51.97, -11.73, -69.63, -12.34, -52.95
-24, -35.38, -18.42, -36.90, -59.12, -20.32, -75.84, -17.01, -59.48
-23, -14.08, -5.19, -29.03, -46.87, -7.64, -62.05, -6.73, -48.82
-22, -17.12, -10.08, -32.72, -51.12, -12.81, -64.33, -9.45, -50.58
-21, -11.15, -0.76, -27.09, -45.26, -5.68, -56.19, -4.92, -43.56
-20, -9.05, -4.45, -22.91, -52.82, -9.34, -62.76, -11.06, -49.49
-19, -0.85, -1.32, -12.25, -49.44, 1.16, -60.10, -3.73, -45.55
-18, -0.31, 0.54, -10.59, -50.02, 1.07, -63.99, -4.22, -45.62
-17, 9.23, -3.17, -5.32, -43.12, 5.23, -57.27, 1.36, -36.59
-16, -0.13, -14.48, -2.53, -44.28, -0.25, -57.98, 1.21, -39.61
-15, 6.33, -8.49, -16.32, -44.64, -0.51, -52.12, -4.49, -40.10
-14, -1.94, -11.96, -17.95, -53.09, -8.83, -60.35, -6.88, -47.94
-13, 6.64, -6.86, -18.48, -44.50, 0.40, -52.59, -1.88, -42.07
-12, 4.56, -1.72, -15.20, -51.61, -8.45, -56.08, -5.32, -44.50
-11, 11.71, 9.61, -12.47, -38.62, 8.94, -42.11, 6.97, -32.63
-10, 1.92, 1.68, -7.80, -45.69, 5.41, -50.36, 4.25, -40.55
-9, 5.48, 6.71, -14.39, -35.65, 15.62, -39.16, 8.65, -30.33
-8, -8.96, -4.45, -13.90, -52.28, 0.27, -53.82, -0.63, -43.70
-7, -2.10, 8.25, -14.73, -39.92, 6.97, -42.80, 4.65, -34.44
-6, -3.51, -5.95, -14.31, -51.05, -6.37, -56.95, -2.82, -43.21
-5, 12.07, 3.40, -16.09, -37.22, 5.61, -42.07, 1.77, -33.30
-4, -1.86, -0.13, -20.07, -49.91, -9.70, -56.80, -10.64, -46.54
-3, 7.55, 3.64, -16.27, -37.19, 4.43, -42.69, -0.11, -34.06
-2, -5.16, -3.91, -17.84, -50.02, -5.74, -55.12, -3.98, -43.63
-1, -5.88, 5.03, -20.47, -38.51, 1.18, -42.31, 3.02, -34.04
0, -10.01, -3.22, -22.20, -48.66, -6.37, -48.59, -0.27, -38.47
-29, 2.88, 3.00, -20.90, -38.98, 3.98, -44.37, 2.93, -33.15
-28, -7.80, -7.02, -24.88, -44.41, -0.36, -50.36, -4.09, -36.12
-27, 6.26, -3.00, -19.49, -40.12, 5.88, -45.17, 0.67, -30.93
-26, 7.06, -4.20, -22.08, -43.41, 3.84, -49.53, -0.98, -34.20
-25, 8.76, -0.60, -21.30, -39.32, 6.17, -44.14, 5.83, -27.40
-24, 3.55, -0.42, -23.34, -41.26, 3.80, -41.93, 4.38, -24.01
-23, 0.22, 6.53, -14.19, -40.19, 7.00, -38.87, 7.91, -20.65
-22, -2.97, 3.44, -15.20, -37.98, 9.12, -35.92, 10.39, -15.15
-21, -6.26, -8.54, -15.22, -42.54, 3.31, -41.55, 5.50, -21.52
-20, 0.25, -0.13, -8.76, -38.89, -2.50, -37.10, 5.86, -20.52
-19, -0.25, -0.94, -10.86, -40.70, -1.94, -37.51, 0.58, -21.64
-18, 2.30, 7.31, -18.10, -27.87, 6.26, -23.51, 2.53, -13.46
-17, -11.09, -10.71, -18.73, -40.48, -6.12, -39.09, -6.21, -24.50
-16, 6.35, 1.05, -20.47, -25.70, 4.58, -28.05, 0.20, -16.76
-15, 1.92, 1.21, -22.22, -23.80, 1.12, -30.89, -6.91, -20.61
-14, -1.21, -3.98, -19.02, -38.36, -11.87, -43.23, -16.41, -33.44
-13, 3.98, 11.85, -18.84, -24.36, -0.65, -26.62, -10.62, -24.03
-12, -6.03, 4.34, -18.10, -37.55, -15.27, -41.86, -21.21, -34.22
-11, 6.88, 8.94, -13.63, -22.42, -1.90, -30.24, -12.72, -23.63
-10, -5.83, -0.80, -17.10, -34.06, -17.97, -41.66, -20.54, -36.17
-9, 2.91, 6.46, -15.96, -22.73, -7.00, -29.53, -11.80, -27.20
-8, -5.72, -5.90, -19.18, -34.44, -18.73, -41.84, -21.75, -37.51
-7, -0.16, 0.42, -15.85, -25.10, -10.51, -30.24, -15.33, -31.11
-6, -8.47, -3.98, -18.75, -31.27, -14.15, -36.01, -19.36, -33.73
-5, -0.34, -7.58, -13.75, -27.89, -2.66, -32.70, -11.15, -27.81
-4, -8.67, -7.85, -19.11, -33.44, -7.80, -38.36, -13.72, -31.94
-3, -0.56, -3.91, -12.07, -34.87, -3.04, -35.81, -10.84, -27.94
-2, -3.76, -2.70, -18.22, -38.04, -5.95, -39.90, -15.22, -30.20
-1, 3.93, -0.38, -4.96, -34.29, -3.98, -37.77, -11.69, -30.87
0, 4.78, 4.60, -8.54, -29.39, 5.03, -32.43, -8.36, -25.17
-29, -1.94, 4.65, -3.06, -32.03, 7.26, -36.84, -2.66, -25.93
-28, 4.90, 5.23, -7.60, -24.03, 14.55, -30.89, 4.22, -19.18
-27, 2.91, 1.34, -7.96, -31.09, 5.16, -39.58, -2.39, -24.18
-26, 12.47, 2.06, -14.80, -23.25, 7.00, -29.84, -2.24, -18.24
-25, 5.61, -13.84, -19.13, -35.27, -10.53, -41.31, -8.11, -30.20
-24, 12.14, 0.76, -18.73, -21.84, -0.74, -26.62, -5.01, -18.78
-23, 1.43, 1.16, -17.50, -33.57, -7.35, -39.18, -13.32, -31.94
-22, 11.15, 15.58, -20.00, -18.51, 9.41, -25.46, -7.64, -21.59
-21, 2.46, 13.39, -16.05, -27.89, 1.41, -34.06, -15.02, -30.80
-20, 9.03, 20.61, -15.56, -12.74, 14.77, -18.37, -5.12, -17.48
-19, -2.08, 0.92, -21.93, -27.27, -3.67, -30.98, -8.83, -24.72
-18, 6.93, 5.59, -23.09, -12.20, 0.78, -17.88, -2.17, -14.33
-17, -6.79, -6.01, -21.50, -24.01, -9.83, -29.75, -9.05, -21.35
-16, 7.82, 6.46, -19.02, -10.15, 5.81, -17.52, 2.39, -10.04
-15, -5.48, -6.21, -24.52, -23.47, -4.16, -29.97, -6.46, -21.14
-14, 3.11, 7.62, -12.27, -11.58, 11.56, -16.81, 3.76, -11.22
-13, -2.19, 7.71, -12.76, -18.93, 5.01, -23.67, 3.91, -14.84
-12, 12.70, 10.42, -9.75, -9.79, 11.62, -13.30, 8.81, -8.23
-11, 4.67, 3.93, -9.30, -12.20, 13.84, -16.18, 9.70, -7.78
-10, 12.87, 10.13, -7.60, -5.07, 24.32, -11.18, 18.28, -1.74
-9, 3.13, 8.76, -17.43, -9.86, 14.35, -15.85, 11.42, -5.01
-8, 7.29, 17.34, -13.84, -7.71, 15.40, -12.03, 8.78, -5.72
-7, 8.72, 19.11, -23.02, -7.00, 8.36, -11.31, 3.02, -7.58
-6, 2.66, 18.73, -15.33, -9.48, 5.77, -12.67, 2.75, -8.49
-5, 8.90, 9.63, -14.98, -6.82, 13.39, -10.51, 3.49, -6.26
-4, 3.08, 2.73, -10.30, -9.81, 7.11, -14.04, 2.73, -9.75
-3, 6.48, 1.07, -16.50, -7.09, 12.63, -10.97, 2.93, -6.77
-2, 0.11, 4.96, -11.60, -12.63, 4.54, -15.85, -0.45, -11.96
-1, 8.16, 15.53, -17.72, -1.77, 12.87, -4.14, 5.32, -1.54
0, 0.60, 6.30, -15.38, -9.61, 5.48, -9.66, 4.60, -5.70
-29, 9.03, 16.90, -11.69, 2.21, 18.95, 4.11, 13.72, 7.71
-28, 3.40, 4.14, -5.68, -8.76, 11.22, -6.41, 7.42, -3.80
-27, 12.03, 11.56, -7.17, 3.00, 22.89, 8.83, 16.45, 7.49
-26, 1.36, 6.79, -5.01, -10.86, 9.66, -7.60, 4.67, -7.11
-25, 10.59, 21.93, -0.92, 2.15, 26.87, 3.71, 18.35, 6.79
-24, -4.18, 12.54, -2.50, -12.36, 10.26, -9.59, 8.47, -4.63
-23, 3.87, 19.38, -0.02, -0.63, 19.76, 0.40, 13.88, 3.08
-22, -6.37, -0.22, 1.50, -13.84, 10.04, -14.80, 4.00, -9.79
-21, -2.62, 7.80, 2.39, -1.63, 17.01, -5.36, 8.36, -5.05
-20, -4.52, -4.27, 4.67, -14.80, 4.02, -17.55, -0.45, -16.38
-19, 9.10, 1.54, 6.19, -7.09, 12.27, -7.35, 5.23, -6.35
-18, 3.82, 0.47, 9.75, -14.69, 6.17, -17.32, 1.94, -10.55
-17, 11.42, 5.16, 15.07, -4.72, 22.31, -6.26, 13.32, 0.54
-16, 2.19, -0.80, 17.57, -0.42, 28.63, -2.70, 16.96, 4.69
-15, -3.51, 0.22, 8.52, -4.38, 23.29, -6.75, 11.62, 1.30
-14, -3.91, 0.67, 12.61, -6.01, 20.70, -7.80, 9.88, -3.00
-13, -1.23, 4.74, 9.66, -7.02, 16.81, -8.78, 6.26, -2.77
-12, -1.86, -2.39, 11.71, -10.59, 11.96, -15.58, 0.85, -9.03
-11, -0.69, -5.52, 11.22, -9.37, 15.24, -16.32, -0.60, -9.88
-10, -1.16, -4.81, 12.58, -16.70, 5.19, -25.30, -6.64, -18.51
-9, 3.62, -0.58, 7.04, -9.30, 8.31, -20.03, -6.59, -15.22
-8, -10.95, -5.50, 8.63, -15.96, 3.06, -23.31, -7.60, -19.47
-7, -4.63, 1.65, 6.39, -5.48, 9.54, -11.22, -1.90, -9.61
-6, -5.05, -7.35, 12.09, -13.25, 2.70, -13.86, -2.77, -12.25
-5, 0.80, -1.54, 9.50, -3.64, 21.26, -0.63, 8.11, 0.74
-4, -3.00, -3.80, 10.97, -18.75, 10.59, -18.08, 2.64, -9.95
-3, 11.53, 3.31, 9.50, -6.06, 22.87, -6.93, 10.39, -0.54
-2, -10.37, -16.23, 7.44, -21.66, 7.85, -22.42, 4.22, -11.80
-1, 0.56, -11.96, 8.00, -7.89, 16.90, -9.50, 8.85, -3.17
0, -11.22, -17.14, 10.71, -21.57, -0.63, -24.39, 0.18, -16.67
-29, -7.55, -1.48, 13.72, -7.11, 14.04, -6.93, 11.58, -3.29
-28, -14.44, -2.10, 10.35, -18.95, 2.59, -19.45, 2.75, -14.28
-27, 0.04, 10.30, 11.24, -7.31, 10.10, -11.56, 7.73, -9.12
-26, -11.94, -9.12, 3.67, -19.83, -0.42, -24.03, -0.31, -18.73
-25, 4.72, -9.21, 3.71, -11.29, 8.00, -16.58, 0.31, -18.08
-24, -1.83, -11.85, 6.10, -19.69, -1.63, -23.65, -6.50, -23.89
-23, 0.42, -1.92, 14.95, -8.54, 12.25, -9.01, 4.40, -12.27
-22, -3.42, -0.76, 14.17, -12.03, 7.04, -15.51, 3.29, -12.32
-21, -1.77, 4.11, 15.69, -9.63, 10.35, -12.76, 9.88, -4.31
-20, -2.64, -0.56, 11.65, -7.89, 13.50, -11.67, 14.44, -1.63
-19, -5.81, -4.72, 5.25, -7.11, 9.77, -11.53, 7.78, -3.20
-18, -1.16, -3.44, 8.14, -2.55, 10.53, -5.88, 10.48, -3.02
-17, -3.98, 1.88, 13.52, -8.58, 4.20, -11.42, 7.15, -9.30
-16, 6.26, 5.79, 13.21, 0.85, 11.65, -1.23, 15.49, 1.27
-15, -6.75, -3.62, 14.62, -7.98, 1.90, -10.64, 10.53, -6.57
-14, -4.60, -3.67, 11.85, -0.89, 9.28, -8.63, 11.42, -0.29
-13, -5.50, -15.91, 12.65, -12.99, -1.65, -21.52, 3.31, -12.00
-12, 5.88, -1.23, 16.47, -1.77, 8.78, -10.71, 8.99, -5.16
-11, -6.48, -3.06, 19.13, -11.35, 0.36, -20.27, 6.06, -13.70
-10, 7.80, 9.66, 19.31, 5.77, 17.17, -1.10, 19.24, 3.38
-9, -9.37, -2.91, 13.90, -8.29, 5.19, -14.44, 10.68, -9.61
-8, -4.85, 1.59, 11.89, 5.36, 20.72, 0.38, 17.84, 3.67
-7, -9.61, -6.24, 13.84, -4.67, 12.23, -10.10, 13.72, -4.69
-6, 2.48, 1.86, 14.26, 8.07, 27.54, 6.26, 25.17, 8.23
-5, -10.55, -8.11, 8.31, -4.11, 15.22, -8.16, 16.03, -1.36
-4, -0.16, 7.64, 11.82, 8.20, 27.16, 4.20, 25.15, 6.68
-3, -7.69, -1.16, 6.35, -4.85, 14.66, -3.53, 18.44, 0.60
-2, -4.49, 4.81, 2.70, 4.31, 22.82, 6.79, 22.62, 7.20
-1, -10.06, -4.74, 0.31, -1.54, 14.35, -0.09, 13.23, 1.52
0, 11.02, 4.07, 3.24, 6.48, 20.83, 8.78, 19.22, 6.66
-29, 7.04, 0.74, -3.91, 2.15, 13.17, 2.24, 11.02, 1.59
-28, 12.56, 7.00, -2.17, 5.86, 15.91, 2.48, 11.40, -0.67
-27, 7.98, 8.02, -7.93, 2.08, 12.00, -1.97, 7.71, -4.14
-26, 3.76, 4.20, -8.85, -0.60, 9.92, -6.64, 7.78, -6.75
-25, -11.20, -6.50, -12.14, -4.90, 0.94, -10.84, 3.82, -8.38
-24, -3.98, 1.74, -11.69, 1.14, 4.18, -4.43, 6.26, -3.06
-23, -3.24, 3.26, -5.59, -5.97, -2.37, -7.20, 2.64, -9.37
-22, 11.76, 9.32, -2.88, 2.84, 9.28, -1.74, 1.18, -4.34
-21, 6.08, 4.65, 5.43, -3.82, 4.07, -9.12, 2.55, -7.38
-20, 17.93, 20.00, 2.48, 8.02, 18.64, 3.02, 15.47, 6.01
-19, 8.23, 16.12, 2.19, -7.06, 8.81, -5.34, 10.68, -1.86
-18, 18.53, 21.08, -0.72, 3.38, 20.56, 8.72, 17.55, 8.67
-17, 2.82, 3.96, -7.62, -10.64, 3.17, -5.68, 6.55, -4.92
-16, 6.53, 12.79, -6.50, 2.55, 13.84, 4.38, 11.49, 2.86
-15, -6.01, 1.99, -7.85, -11.29, -4.09, -10.77, -2.62, -11.09
-14, 6.46, 11.69, -2.08, 4.81, 9.39, 5.72, 11.18, 4.07
-13, -11.56, 2.10, -3.29, -6.37, 0.49, -4.40, 7.04, -3.20
-12, 3.38, 10.68, -1.97, 4.76, 11.51, 6.55, 11.35, 4.81
-11, -4.85, 0.74, -7.09, -10.01, 0.74, -9.66, 3.76, -5.65
-10, 2.77, 2.32, -1.72, 0.45, 13.39, 1.99, 13.46, 4.98
-9, -0.09, -7.04, 0.16, -8.02, 6.82, -4.96, 9.21, 2.19
-8, 13.46, 3.84, 7.06, -0.04, 10.64, 1.03, 11.20, 7.58
-7, 13.55, 6.62, 11.11, -3.24, 5.14, -0.27, 9.05, 6.21
-6, 19.67, 15.76, 12.54, 0.89, 9.50, 3.22, 13.21, 9.10
-5, 16.27, 9.68, 2.28, -4.69, 8.87, -5.36, 5.54, 0.76
-4, 15.27, 8.92, 3.49, -6.33, 11.82, -4.83, 9.28, 0.18
-3, 0.51, -2.64, -0.78, -12.27, 9.52, -10.55, 12.49, 1.36
-2, 0.36, 6.86, -4.07, -8.74, 8.00, -7.71, 10.17, 5.01
-1, -2.08, -1.32, 3.53, -11.76, 2.79, -13.32, 13.66, 1.41
0, 3.02, 1.90, 1.45, 0.89, 10.24, -1.34, 17.50, 10.08
-29, 0.07, 1.30, 1.32, -7.91, 0.40, -11.62, 10.57, 2.21
-28, 4.60, 3.89, -3.44, -1.18, 9.99, -5.52, 16.00, 10.44
-27, -12.07, -4.76, -2.59, -14.73, -2.82, -16.36, 9.43, 1.74
-26, 0.18, 6.95, -3.62, -1.36, 8.45, -2.48, 15.78, 11.98
-25, -0.34, -0.58, -2.48, -12.54, -2.86, -13.50, 7.82, -2.12
-24, 9.61, 9.39, 0.89, 3.13, 9.99, 4.27, 16.96, 9.99
-23, 2.88, 0.00, -4.00, -11.49, -9.50, -6.28, 4.54, -2.48
-22, 12.47, 6.48, -6.75, -3.22, 2.95, 3.49, 11.06, 6.53
-21, -1.23, -8.05, -5.14, -19.20, -5.16, -14.04, 5.95, -6.15
-20, 7.73, -3.91, -7.85, -7.31, 8.00, 0.36, 8.07, 1.56
-19, -10.46, -9.66, -4.52, -17.46, -1.94, -10.86, 0.60, -6.62
-18, -3.33, 1.72, -4.29, -5.83, 7.09, -1.21, 7.15, 1.45
-17, -12.74, -8.52, -6.30, -12.23, -8.63, -10.04, -4.78, -6.30
-16, 0.25, 0.11, -5.32, -3.71, 0.92, -2.88, 2.82, -0.40
-15, -5.43, -0.83, -7.06, -12.03, -4.49, -12.58, -1.32, -6.84
-14, -3.51, -1.39, -10.62, -8.76, 0.89, -7.24, -2.86, -7.38
-13, -19.47, -8.20, -14.82, -16.16, -8.20, -11.24, -10.71, -14.08
-12, -18.35, -4.34, -10.10, -14.55, -7.91, -9.45, -8.69, -10.84
-11, -9.48, -9.14, -15.56, -16.34, -15.96, -13.99, -15.69, -15.42
-10, -1.86, -15.24, -14.08, -18.31, -18.02, -17.23, -15.00, -15.69
-9, -1.81, -13.05, -20.05, -21.68, -18.28, -24.10, -18.33, -18.19
-8, -6.93, -9.32, -10.10, -23.22, -13.99, -24.25, -13.28, -19.45
-7, -7.09, -8.65, -14.62, -18.51, -9.12, -19.29, -10.75, -16.61
-6, -11.27, -13.28, -3.04, -22.93, -10.84, -21.88, -7.26, -19.33
-5, -14.22, -7.76, -3.71, -12.79, -3.82, -10.89, -0.29, -9.99
-4, -15.47, -11.20, 4.81, -20.59, -11.09, -13.97, -3.00, -11.42
-3, -4.52, -0.09, 0.13, -11.06, -0.60, -3.06, 4.09, -1.54
-2, -22.28, -1.16, 7.62, -21.82, -4.76, -11.56, 2.93, -8.65
-1, -17.34, -13.39, 0.76, -20.03, -9.70, -7.67, 3.67, -5.25
0, -11.24, -7.78, -8.34, -8.27, -0.65, 1.94, 6.88, 3.00
-29, -11.22, -19.67, -9.99, -23.13, -15.40, -16.52, -5.90, -11.38
-28, 7.47, -9.77, -10.35, -10.26, 0.94, -3.89, 0.89, 0.13
-27, -5.88, -20.47, -9.81, -21.26, -9.50, -15.96, -6.10, -13.30
-26, -10.44, -14.66, -5.48, -16.16, -6.15, -6.97, 2.64, -2.82
-25, 4.60, -1.86, -6.37, -6.01, 4.76, -0.56, 6.46, -0.67
-24, -8.78, -8.05, -9.99, -17.66, -3.38, -15.04, 0.58, -10.28
-23, -6.44, -1.74, -11.56, -13.23, 4.49, -11.73, 6.57, -7.38
-22, -19.67, -11.40, -11.96, -18.64, -3.69, -18.82, 2.48, -11.82
-21, -19.42, -9.39, -8.54, -10.95, 2.28, -7.29, 12.09, -1.81
-20, -20.32, -12.92, -17.30, -19.00, -8.29, -14.19, 5.63, -6.33
-19, -8.61, -6.95, -12.07, -17.57, -8.87, -15.09, 7.42, -8.14
-18, -8.27, -8.47, -17.88, -18.98, -13.28, -18.13, 3.13, -11.33
-17, -6.15, -8.63, -13.21, -16.79, -14.35, -14.73, 5.36, -11.09
-16, -3.78, -8.16, -16.74, -15.45, -11.44, -14.75, 4.98, -9.50
-15, -10.82, -7.62, -12.99, -16.74, -12.03, -15.27, 5.07, -11.82
-14, -4.83, -16.16, -11.20, -12.79, -9.23, -13.57, 10.55, -8.14
-13, -1.18, -6.75, -21.03, -3.91, -1.88, -3.44, 14.44, -0.25
-12, -17.70, -11.49, -21.57, -15.22, -11.76, -15.31, 3.17, -12.18
-11, -11.62, 2.64, -22.28, -6.15, 2.06, -8.18, 9.14, -8.23
-10, -17.81, 2.15, -17.19, -16.83, -5.34, -21.17, 2.15, -17.43
-9, -10.48, 7.29, -16.07, -1.14, 8.90, -8.96, 10.30, -5.61
-8, -17.12, -8.23, -13.05, -10.86, -5.57, -17.99, 7.11, -12.85
-7, 0.16, 0.38, -15.36, 1.52, 3.00, -2.86, 15.11, 0.56
-6, -10.82, -7.67, -19.16, -12.72, -14.64, -15.40, 3.67, -11.00
-5, -5.19, 7.26, -20.54, 1.16, -5.92, -1.25, 10.37, 0.13
-4, -11.40, -3.51, -15.65, -9.88, -16.83, -12.83, 3.93, -10.35
-3, 9.79, 1.12, -13.17, 3.53, -2.30, 0.83, 12.92, 1.68
-2, -9.16, -9.14, -18.69, -6.82, -13.01, -9.97, 6.84, -6.64
-1, -5.48, -4.87, -19.71, 3.91, -1.97, 1.83, 13.01, 0.16
0, -11.09, -14.10, -26.06, -5.77, -14.73, -10.42, 0.07, -11.02
-29, -5.39, -3.69, -26.84, 3.20, -6.30, -4.09, 1.39, -6.01
-28, -5.95, -12.85, -32.45, -6.55, -16.52, -12.56, -9.14, -15.51
-27, -1.41, -10.08, -33.33, -4.52, -12.70, -10.71, -8.43, -15.71
-26, 3.62, -8.72, -34.29, -12.23, -19.02, -17.21, -12.32, -17.97
-25, -6.41, -3.82, -27.78, -8.00, -16.52, -12.14, -7.80, -10.84
-24, -2.75, 1.07, -22.49, -9.37, -16.90, -12.63, -6.50, -11.40
-23, 2.73, 4.02, -24.81, -5.95, -11.51, -11.27, -6.01, -8.76
-22, -1.36, -3.26, -24.39, -9.45, -16.23, -15.31, -11.89, -14.53
-21, 0.07, -1.99, -23.11, -2.93, -7.53, -8.92, -6.53, -8.20
-20, -7.09, -5.52, -13.34, -8.45, -10.06, -14.71, -6.10, -12.65
-19, -4.54, -6.95, -21.90, 1.59, -0.16, -3.11, -2.26, -2.97
-18, -11.31, -12.90, -21.39, -11.02, -12.09, -12.23, -5.21, -12.65
-17, -1.90, 0.96, -23.78, -2.53, -6.37, -5.32, -1.61, -4.63
-16, -3.67, -5.68, -18.69, -12.61, -19.78, -14.55, -4.90, -9.66
-15, 4.85, 2.44, -18.02, -0.78, -7.51, -2.44, 3.04, 1.07
-14, -15.00, -6.86, -17.68, -15.65, -18.06, -14.55, -4.85, -9.03
-13, -4.25, 4.09, -16.52, 0.56, -1.68, 0.27, 6.68, 1.88
-12, -12.32, -9.16, -18.46, -11.09, -12.96, -8.67, -2.91, -7.11
-11, -8.76, -4.29, -20.47, -11.82, -18.15, -7.47, -4.11, -5.86
-10, 3.51, 1.94, -20.43, -0.09, -4.40, 1.30, 1.90, 3.87
-9, -5.43, -8.38, -22.75, -11.60, -13.19, -11.02, -6.21, -6.68
-8, 2.93, 2.01, -24.14, -1.88, -3.76, -4.02, -0.87, -1.05
-7, -11.82, -5.41, -25.82, -9.05, -12.72, -13.37, -6.24, -7.71
-6, -4.20, 1.94, -19.87, -0.38, -7.11, -4.81, -1.05, -1.21
-5, -10.30, -1.14, -23.83, -10.04, -17.10, -13.61, -10.68, -9.28
-4, -2.37, 2.41, -13.43, -4.74, -10.04, -8.61, -4.76, -4.14
-3, -1.30, -3.13, -10.04, -8.31, -8.92, -14.64, -6.12, -9.45
-2, -1.88, -2.28, -8.94, -7.67, -7.96, -13.48, -6.03, -11.15
-1, -4.45, -10.51, -15.18, -9.52, -11.87, -18.82, -11.27, -16.85
0, -0.80, -11.65, -8.56, -9.21, -12.00, -19.56, -9.07, -17.88
-29, 1.99, -8.16, -13.03, -7.17, -9.68, -14.95, -5.72, -10.42
-28, 2.15, -7.91, -7.93, -10.95, -15.18, -16.50, -6.26, -10.84
-27, 6.08, 0.76, -8.78, -5.48, -7.93, -8.67, -1.07, -3.93
-26, -3.89, -7.76, -9.70, -9.95, -13.86, -12.65, -2.39, -9.70
-25, -0.18, -4.74, -15.53, 0.34, -6.33, -0.80, -2.24, -4.52
-24, -7.29, -9.30, -10.68, -9.57, -16.07, -10.08, -6.57, -10.62
-23, -7.85, -9.28, -10.59, -8.58, -18.13, -11.87, -6.17, -6.88
-22, 7.38, 1.12, -7.69, 1.81, -5.50, -1.03, -0.98, 0.27
-21, 3.20, -4.60, -0.76, -10.64, -16.81, -13.84, -7.85, -12.16
-20, -2.30, -8.40, -4.94, -10.08, -17.84, -13.03, -9.12, -13.23
-19, -4.83, 4.14, -7.91, 2.46, -9.92, -3.17, -0.60, -2.24
-18, -12.23, -14.91, -4.09, -6.88, -20.50, -11.60, -2.41, -7.55
-17, 2.75, -9.63, -1.12, -8.09, -15.07, -5.45, 3.96, -1.63
-16, -3.51, -4.47, -3.62, -8.56, -9.59, -7.69, 4.63, -1.94
-15, 7.35, 4.45, 1.39, -0.45, 2.70, -1.72, 11.69, 2.77
-14, -0.27, -5.59, 1.32, -5.90, 1.03, -9.21, 7.20, -2.91
-13, 4.96, -1.99, 6.68, 1.01, 9.50, -3.76, 14.71, 2.08
-12, 7.35, 1.10, 3.33, -3.13, 7.04, -1.34, 14.66, 6.19
-11, 11.89, -0.85, 2.91, -0.94, 6.82, 5.23, 16.03, 7.11
-10, 2.91, -4.27, -4.85, -2.55, 2.26, 4.65, 13.08, 6.88
-9, 6.91, -9.45, -3.58, -5.30, -1.97, -0.36, 8.16, 0.11
-8, 12.09, -6.21, -11.04, 0.54, -0.25, 1.61, 5.95, 1.21
-7, 4.18, -0.36, -5.83, -4.29, -5.63, -4.63, 4.02, -1.79
-6, 3.89, 2.86, -8.49, 2.75, 1.77, 2.97, 6.68, 5.10
-5, -1.94, 5.99, -6.84, -6.48, -7.13, -2.48, 0.40, -1.90
-4, -2.37, 2.15, -11.09, 2.88, 4.36, 8.87, 7.40, 6.91
-3, -10.24, -9.23, -12.79, -9.14, -8.07, -4.36, 1.74, -5.99
-2, 3.17, 5.72, -14.15, 1.77, 2.30, 2.73, 8.56, -1.01
-1, -1.07, -2.88, -7.55, -9.81, -5.41, -6.88, 5.41, -8.72
0, 3.89, -5.81, -5.83, -11.60, -8.90, -7.44, 0.04, -9.41
-29, 10.37, 4.31, -10.68, 2.88, -1.27, 7.89, 2.73, 2.79
-28, 0.78, -1.07, -11.69, -10.39, -12.20, -5.41, -5.65, -8.87
-27, 8.47, 4.22, -14.84, 0.98, 2.37, 6.12, 1.63, 2.12
-26, -8.47, -7.80, -13.39, -12.74, -5.88, -7.24, -7.09, -11.42
-25, 6.66, 2.32, -0.83, 3.73, 16.23, 9.43, 5.25, 3.04
-24, -12.61, -10.17, -1.63, -5.34, 6.88, 0.36, -1.27, -4.47
-23, -3.69, 5.39, 5.81, 4.92, 15.56, 10.84, 8.45, 6.28
-22, -5.39, 12.36, 9.05, 3.78, 11.94, 9.83, 10.30, 7.42
-21, -4.38, 5.88, 4.65, -6.50, 0.83, 1.10, 2.21, 0.11
-20, 9.95, 4.14, 7.00, -0.38, 7.11, 3.04, 1.32, 1.30
-19, 4.07, -2.75, 5.54, -4.78, 4.56, -3.02, -3.69, -2.66
-18, 7.33, -1.39, 6.17, -6.59, 5.07, -5.83, -3.40, -3.53
-17, 2.88, -0.69, 5.32, -7.62, 4.47, -7.00, -1.48, -3.35
-16, -0.80, -1.18, 8.90, -8.14, 2.68, -5.77, 2.32, -2.75
-15, 0.72, -4.76, 1.56, -14.93, -0.69, -7.22, -3.46, -5.90
-14, 8.38, 0.00, 3.60, -8.47, 8.69, -1.68, 0.51, -1.77
-13, 8.40, 3.38, 11.94, -14.69, 5.34, -4.81, 1.77, -4.74
-12, 9.75, 16.56, 9.45, -4.60, 10.97, 6.08, 7.15, 3.49
-11, 2.21, 11.65, 14.73, -14.06, 5.70, -2.35, 7.09, -0.69
-10, 15.56, 17.32, 11.38, -1.50, 11.76, 12.23, 13.05, 14.08
-9, 11.02, 8.83, 8.38, -15.58, -3.84, -1.21, 3.80, 2.12
-8, 20.30, 19.00, 2.91, -2.70, 6.50, 11.02, 7.38, 9.75
-7, 11.94, 11.87, 3.02, -16.34, -7.11, -5.32, -1.72, -4.40
-6, 22.82, 21.95, -1.79, -5.57, 0.60, 2.01, 0.94, 0.74
-5, 11.62, 7.20, -4.92, -21.28, -16.32, -15.04, -12.79, -15.94
-4, 20.94, 18.22, -5.43, -11.40, -7.31, -7.60, -9.95, -9.88
-3, 22.93, 26.02, -11.22, -20.81, -23.18, -21.19, -29.19, -30.06
-2, 20.97, 22.64, -13.70, -34.96, -36.19, -40.86, -40.64, -46.40
-1, 38.85, 34.91, -18.86, -42.31, -42.67, -50.54, -47.05, -52.82
0, 46.11, 46.04, -17.86, -34.60, -35.14, -44.19, -42.40, -45.60
-29, 35.99, 46.51, -28.99, -45.66, -46.74, -53.76, -52.28, -52.59
-28, 43.92, 52.06, -29.15, -46.36, -49.75, -58.03, -56.10, -57.13
-27, 45.37, 50.96, -27.43, -50.02, -53.29, -65.65, -57.73, -61.65
-26, 47.90, 55.45, -17.97, -47.86, -50.00, -62.36, -51.23, -58.74
-25, 51.45, 57.22, -23.07, -46.96, -50.18, -60.73, -53.40, -55.92
-24, 56.64, 51.30, -28.57, -42.33, -49.02, -53.29, -51.34, -45.37
-23, 50.94, 36.84, -26.82, -48.95, -52.55, -57.67, -55.25, -48.93
-22, 51.79, 34.04, -31.65, -39.54, -48.53, -45.20, -53.69, -38.74
-21, 33.82, 33.86, -26.60, -46.04, -51.59, -52.84, -53.26, -44.06
-20, 34.76, 39.56, -28.01, -32.45, -41.80, -42.83, -51.05, -40.10
-19, 28.63, 20.32, -23.54, -37.26, -52.68, -46.80, -54.99, -44.75
-18, 32.79, 21.19, -26.55, -25.55, -37.26, -35.34, -41.26, -31.14
-17, 21.39, 13.17, -20.47, -34.40, -44.70, -44.48, -43.81, -38.02
-16, 34.22, 29.08, -19.24, -15.89, -27.18, -20.83, -29.10, -18.51
-15, 28.50, 28.54, -17.48, -28.68, -34.24, -29.39, -30.15, -25.93
-14, 42.47, 39.85, -13.63, -12.32, -15.20, -13.55, -18.31, -13.32
-13, 34.02, 22.78, -12.56, -23.76, -24.50, -23.92, -22.28, -21.44
-12, 40.99, 19.02, -10.57, -10.66, -9.05, -12.11, -11.09, -8.58
-11, 21.10, 5.39, -3.58, -21.12, -15.71, -22.78, -10.75, -12.90
-10, 18.69, 15.78, 0.87, -6.82, -0.67, -7.69, 3.06, 0.89
-9, 5.52, 2.82, 3.08, -15.02, -8.72, -14.64, 0.36, -4.16
-8, 19.13, 4.54, 11.51, 0.76, 9.92, 2.26, 12.87, 11.42
-7, 10.89, -6.33, 10.64, 2.62, 11.58, 4.58, 11.47, 13.08
-6, 1.59, -17.12, 11.15, 0.18, 7.42, 1.43, 6.95, 8.00
-5, 3.82, -11.40, 16.81, 4.09, 14.31, 9.70, 12.58, 14.51
-4, 3.08, -9.83, 13.57, 5.14, 13.86, 13.93, 14.80, 19.56
-3, 8.65, -1.48, 15.71, 8.52, 14.57, 16.00, 15.83, 21.66
-2, 6.12, 3.17, 9.52, 6.73, 15.29, 16.25, 14.53, 22.08
-1, -1.81, -6.03, 13.32, 3.53, 13.19, 6.91, 11.67, 13.17
0, -0.87, -4.36, 15.04, 8.45, 15.42, 9.66, 9.59, 12.87
-29, -2.48, -9.90, 20.92, 1.32, 7.62, 5.10, 4.83, 9.54
-28, 4.00, -9.41, 19.51, 9.92, 15.83, 16.67, 7.55, 21.57
-27, -7.58, -16.45, 20.63, 3.33, 9.25, 10.66, 2.84, 16.79
-26, -2.82, -9.63, 20.50, 13.37, 18.28, 18.57, 8.67, 24.88
-25, -5.21, -14.46, 24.52, 3.73, 12.14, 5.95, 4.43, 10.91
-24, 4.90, -1.92, 24.21, 17.86, 24.05, 19.24, 12.99, 19.45
-23, -4.94, -11.78, 22.06, 3.62, 9.21, 7.26, 4.87, 9.81
-22, 2.79, -8.27, 16.56, 15.33, 19.00, 17.86, 10.08, 17.64
-21, -9.86, -26.42, 13.77, 0.85, 7.80, 4.20, 5.12, 5.43
-20, -2.84, -11.69, 13.70, 15.94, 23.00, 17.93, 14.93, 15.56
-19, -8.05, -13.17, 17.66, 5.43, 11.24, 7.96, 8.25, 5.83
-18, 11.00, 5.72, 20.61, 22.58, 28.16, 25.46, 19.74, 19.67
-17, -5.01, -3.35, 13.68, 12.87, 16.32, 14.93, 11.04, 11.31
-16, -0.92, 2.44, 12.70, 22.62, 26.51, 23.36, 16.74, 17.68
-15, -12.61, -5.79, 6.86, 10.66, 15.45, 12.00, 8.99, 9.05
-14, 0.72, 4.69, 10.06, 17.01, 22.96, 23.63, 14.33, 17.12
-13, -4.47, -3.33, 8.69, 5.63, 11.27, 16.38, 5.36, 10.80
-12, -0.56, -4.25, 11.98, 13.50, 17.84, 20.65, 7.47, 15.18
-11, 2.35, -4.22, 9.25, 15.42, 19.74, 17.86, 10.13, 17.01
-10, -6.03, -5.32, 6.12, 14.22, 19.58, 14.39, 8.52, 12.56
-9, -2.46, -2.55, 15.18, 13.01, 20.88, 11.87, 13.52, 11.04
-8, 0.02, -11.51, 11.06, 12.52, 23.34, 13.72, 14.06, 12.90
-7, -16.74, -10.01, 17.93, 4.60, 20.54, 7.31, 10.17, 9.52
-6, -4.43, 0.16, 19.13, 14.22, 29.39, 18.02, 16.65, 17.08
-5, -4.05, -4.60, 25.24, 7.24, 21.75, 11.98, 15.96, 11.58
-4, 1.30, 0.42, 26.24, 20.52, 31.76, 25.21, 25.35, 24.86
-3, -2.06, -9.72, 30.42, 11.22, 22.11, 18.42, 22.04, 18.53
-2, 3.82, -0.34, 30.76, 24.10, 32.77, 29.57, 26.98, 28.25
-1, -11.42, -12.07, 37.10, 10.80, 20.05, 13.97, 18.22, 16.18
0, 3.22, -2.08, 41.19, 24.81, 36.46, 27.40, 28.36, 29.68
-29, -3.80, -9.39, 40.17, 11.53, 25.03, 12.85, 22.42, 19.16
-28, 0.38, -0.74, 40.70, 25.57, 39.76, 27.51, 31.69, 31.78
-27, -12.83, -11.56, 39.25, 14.84, 26.04, 16.29, 25.17, 24.18
-26, -2.84, -3.93, 38.91, 27.05, 35.83, 29.97, 31.65, 36.17
-25, -12.45, -23.34, 29.41, 11.24, 19.18, 13.70, 18.46, 22.46
-24, -18.13, -23.89, 17.61, 5.25, 12.05, 12.85, 12.52, 19.78
-23, -29.08, -14.89, 26.69, 11.94, 15.62, 23.72, 20.76, 28.41
-22, -9.72, 0.09, 39.58, 21.75, 28.70, 36.21, 32.01, 41.33
-21, -10.08, -7.09, 31.65, 16.36, 24.27, 30.09, 25.95, 36.37
-20, -7.06, -18.89, 29.82, 16.34, 27.02, 27.51, 26.49, 32.72
-19, -18.28, -38.15, 20.09, 10.46, 23.58, 20.54, 21.32, 27.09
-18, -38.91, -59.68, 21.28, 10.37, 19.85, 15.31, 19.65, 22.26
-17, -52.08, -83.53, 16.07, 9.03, 15.71, 14.31, 14.22, 21.19
-16, -41.51, -37.35, 30.09, 5.45, 11.42, 14.95, 16.79, 18.13
-15, -28.81, -22.04, 29.71, 17.86, 22.62, 29.71, 23.11, 28.59
-14, -20.90, -8.52, 31.18, 11.11, 14.39, 23.58, 18.13, 18.69
-13, 6.95, 24.88, 35.72, 21.39, 26.98, 35.45, 26.73, 28.59
-12, -2.30, 5.77, 35.32, 19.27, 26.13, 31.54, 24.12, 28.41
-11, 3.13, -0.51, 23.31, 21.10, 29.64, 33.24, 22.66, 31.58
-10, 2.28, 0.67, 35.65, 11.49, 23.54, 24.21, 23.34, 26.78
-9, 7.73, 2.37, 29.75, 26.69, 37.57, 39.63, 34.40, 44.46
-8, -11.58, -18.82, 28.72, 11.49, 19.18, 23.34, 26.22, 32.05
-7, -0.31, -13.37, 31.49, 26.04, 30.76, 37.82, 34.13, 42.49
-6, -9.66, -18.64, 34.15, 11.11, 15.09, 28.03, 23.94, 30.22
-5, -2.03, 4.45, 31.85, 22.66, 29.75, 41.80, 28.57, 38.07
-4, -11.71, 0.18, 32.63, 8.74, 18.02, 25.75, 20.52, 23.74
-3, 0.65, 11.91, 31.27, 21.70, 31.72, 38.24, 27.20, 36.95
-2, -8.38, -1.72, 29.19, 7.69, 17.41, 17.97, 18.44, 28.39
-1, -10.21, -17.79, 23.58, 8.00, 14.22, 20.99, 19.98, 29.24
0, -1.99, -6.28, 31.61, 18.69, 28.16, 33.77, 27.34, 35.92
-29, -13.52, -10.15, 21.66, 10.59, 10.10, 25.64, 13.93, 24.94
-28, -9.39, -10.17, 23.18, 13.59, 7.22, 27.14, 10.37, 21.14
-27, -11.51, -13.46, 20.21, 6.15, 0.40, 18.24, 2.70, 14.15
-26, -2.55, -14.15, 25.15, 9.43, 2.82, 21.26, 7.87, 16.07
-25, -5.95, -10.21, 22.04, 7.73, 5.21, 21.88, 9.66, 16.23
-24, -7.82, -9.90, 32.14, 7.42, 12.00, 21.97, 15.60, 15.07
-23, -4.34, -9.05, 29.03, 8.72, 13.43, 21.64, 13.14, 13.55
-22, -6.10, -4.52, 35.05, 2.55, 6.86, 10.10, 6.35, 1.56
-21, -3.69, -6.71, 24.59, 7.71, 9.12, 10.73, 1.18, -0.09
-20, -6.53, -20.03, 23.54, -1.63, -0.85, -0.29, -10.17, -13.25
-19, -6.75, -7.42, 17.34, 4.56, -1.01, 5.48, -11.58, -9.19
-18, -13.81, -4.34, 25.82, -4.25, -10.06, -4.69, -13.88, -15.71
-17, 4.16, 4.63, 26.49, 7.02, 5.30, 5.16, -1.88, -5.43
-16, 0.78, -0.89, 29.73, -4.09, -4.09, -7.20, -7.42, -15.60
-15, -2.39, -6.68, 19.31, -5.01, -12.00, -4.34, -10.91, -13.37
-14, -3.80, -2.24, 8.74, 3.53, -5.45, 6.57, -10.86, -6.57
-13, -13.55, -13.01, 11.27, -11.13, -15.58, -8.45, -13.37, -13.70
-12, -4.90, -9.92, 12.83, 3.17, 8.14, 4.38, 3.04, 2.28
-11, -11.06, -21.19, 7.17, -13.32, -6.10, -11.80, -5.92, -9.61
-10, 11.65, -3.42, 14.46, -1.25, 3.78, 3.24, 4.65, 1.70
-9, -5.97, -3.96, 12.36, -10.26, -10.24, -2.77, -0.63, -2.21
-8, -10.24, -8.18, 11.60, 0.18, -3.80, 6.91, 2.68, 4.83
-7, -14.39, -9.28, 15.04, -10.15, -15.67, -6.79, -5.70, -6.21
-6, -2.73, -1.70, 18.35, -2.08, -4.45, -2.91, 0.07, -0.45
-5, -5.23, -4.69, 16.81, -10.42, -10.19, -8.31, -4.65, -5.07
-4, 13.81, 15.09, 23.18, -3.26, -0.49, 1.52, 3.55, 0.16
-3, 12.94, 8.74, 16.88, -6.30, -2.86, 0.76, 2.70, 1.61
-2, 6.84, 2.10, 15.83, -4.96, -3.91, 1.01, 3.00, 2.39
-1, -7.35, -4.49, 14.86, -5.41, -10.57, -2.03, 1.10, 2.53
0, -4.22, -3.67, 23.38, -7.04, -14.51, -5.63, -0.18, -0.16
-29, -1.70, 1.83, 20.16, -4.29, -9.92, -3.93, -2.35, -2.44
-28, -2.59, 4.81, 25.68, -6.08, -10.04, -6.53, -3.22, -7.85
-27, 4.31, 12.14, 23.89, 0.51, -4.96, -0.02, -4.63, -2.97
-26, -2.10, 3.08, 26.44, -10.21, -11.69, -12.05, -11.56, -13.57
-25, 0.74, -0.04, 34.60, -12.76, -12.92, -8.90, -11.67, -9.59
-24, 6.33, 7.80, 30.91, -16.85, -13.23, -17.50, -15.87, -19.71
-23, 14.69, 20.92, 24.94, -7.22, -5.05, -9.72, -11.06, -12.23
-22, 0.42, 6.39, 21.73, -25.44, -23.36, -30.91, -23.18, -27.87
-21, 16.61, 14.62, 20.54, -16.47, -13.97, -22.37, -16.54, -20.59
-20, 11.11, 6.41, 18.60, -31.85, -31.05, -35.54, -25.26, -31.76
-19, 25.44, 19.33, 23.18, -16.09, -16.92, -19.87, -15.76, -19.96
-18, 21.21, 9.28, 20.14, -31.94, -32.07, -32.34, -24.36, -31.02
-17, 32.83, 21.17, 10.42, -25.50, -27.63, -27.54, -25.62, -28.74
-16, 27.14, 20.56, 0.58, -42.51, -48.93, -47.72, -40.84, -45.53
-15, 47.01, 33.84, -4.96, -38.47, -45.37, -45.42, -39.79, -43.18
-14, 42.02, 31.90, -13.61, -55.34, -60.37, -63.77, -54.99, -58.99
-13, 55.86, 43.92, -9.99, -48.08, -52.21, -54.85, -46.02, -52.79
-12, 52.79, 37.64, -6.48, -52.88, -54.85, -56.57, -47.03, -54.27
-11, 63.32, 44.93, -6.93, -49.17, -48.82, -50.69, -43.03, -50.38
-10, 59.50, 45.15, -9.90, -50.00, -51.12, -50.36, -42.51, -49.11
-9, 63.86, 45.04, -15.02, -50.05, -51.36, -53.22, -44.99, -54.25
-8, 61.38, 35.54, -29.06, -56.91, -55.05, -64.08, -56.42, -65.69
-7, 59.93, 28.27, -16.18, -56.26, -51.70, -63.84, -55.23, -67.08
-6, 66.68, 30.60, -19.89, -52.84, -47.52, -61.96, -55.97, -67.06
-5, 65.80, 26.60, -9.66, -55.48, -45.22, -61.53, -49.78, -65.11
-4, 66.00, 25.21, -11.71, -48.70, -37.08, -49.87, -41.02, -52.64
-3, 64.66, 22.49, -7.80, -56.17, -46.09, -56.33, -43.34, -58.76
-2, 71.15, 26.00, -10.46, -46.60, -35.03, -48.88, -36.46, -50.07
-1, 61.31, 15.58, 0.07, -52.48, -38.67, -52.88, -34.24, -51.50
0, 66.56, 19.38, 3.11, -33.71, -18.57, -33.82, -20.56, -31.61
-29, 52.44, 8.20, 10.46, -42.18, -19.94, -39.96, -19.42, -33.91
-28, 59.43, 13.23, 5.95, -29.21, -5.30, -25.50, -10.33, -22.02
-27, 49.46, -2.35, 18.19, -38.76, -11.29, -35.14, -12.47, -28.07
-26, 58.25, -0.38, 22.20, -19.33, 7.09, -15.87, 0.00, -12.58
-25, 46.34, -19.22, 28.03, -28.30, -2.24, -25.35, -1.81, -18.64
-24, 50.87, -13.39, 37.06, -7.85, 16.58, -5.72, 12.90, 0.25
-23, 27.72, -27.09, 40.41, -12.81, 7.53, -8.16, 10.86, -1.56
-22, 9.95, -23.54, 43.79, -5.28, 19.18, 2.41, 14.17, 6.10
-21, 6.19, -23.40, 48.10, 9.19, 31.76, 19.54, 22.44, 17.19
-20, -8.23, -39.16, 54.18, 6.75, 30.47, 20.99, 24.56, 19.27
-19, 0.85, -35.61, 59.08, 20.61, 43.16, 34.06, 37.95, 30.09
-18, -9.05, -44.52, 56.75, 17.39, 39.52, 32.37, 38.04, 28.99
-17, -11.71, -44.17, 62.05, 26.26, 52.68, 44.50, 51.05, 40.08
-16, -18.42, -48.12, 59.10, 26.08, 57.04, 44.55, 53.49, 42.89
-15, -22.06, -47.16, 71.97, 29.21, 65.16, 48.17, 62.74, 48.66
-14, -27.83, -50.98, 72.84, 34.15, 72.02, 56.37, 72.67, 59.84
-13, -33.46, -53.33, 75.79, 38.24, 75.30, 61.06, 79.97, 64.93
-12, -38.18, -53.82, 63.77, 41.06, 72.40, 62.61, 78.61, 66.43
-11, -40.55, -56.24, 67.01, 33.93, 62.07, 57.58, 76.53, 62.34
-10, -43.05, -53.00, 62.05, 44.32, 70.88, 67.12, 81.81, 72.44
-9, -43.72, -61.24, 71.77, 39.56, 67.84, 60.84, 81.70, 66.79
-8, -38.36, -57.53, 68.22, 52.97, 74.68, 72.20, 85.38, 73.16
-7, -48.73, -53.17, 59.61, 50.74, 68.55, 63.81, 75.01, 62.25
-6, -58.25, -61.04, 62.25, 39.63, 55.50, 53.29, 67.35, 53.04
-5, -47.77, -49.78, 54.56, 48.88, 67.75, 63.75, 68.71, 61.76
-4, -56.89, -57.78, 52.57, 34.85, 55.86, 51.95, 59.23, 51.23
-3, -44.17, -52.53, 52.24, 48.39, 70.01, 66.47, 62.54, 61.06
-2, -55.23, -60.64, 46.76, 29.84, 50.54, 48.41, 45.20, 44.84
-1, -42.07, -47.14, 54.69, 42.56, 66.70, 59.21, 54.74, 55.16
0, -52.59, -59.23, 53.13, 31.76, 59.23, 47.54, 49.46, 46.72
-29, -44.21, -42.47, 50.56, 40.84, 67.95, 56.37, 51.72, 51.61
-28, -52.68, -46.85, 43.97, 26.89, 54.58, 44.68, 43.65, 41.73
-27, -42.69, -41.42, 40.26, 35.61, 61.96, 56.39, 49.87, 51.57
-26, -44.59, -40.66, 35.99, 26.58, 50.49, 50.34, 45.53, 49.04
-25, -35.90, -24.88, 39.29, 38.00, 60.24, 60.93, 54.38, 57.15
-24, -37.60, -34.13, 35.49, 33.21, 52.97, 52.21, 49.46, 51.23
-23, -30.89, -27.63, 41.55, 39.14, 59.01, 53.60, 55.45, 53.51
-22, -35.83, -28.90, 32.59, 34.67, 51.32, 46.85, 46.60, 46.38
-21, -37.89, -36.66, 30.87, 32.66, 47.32, 44.90, 44.50, 42.85
-20, -35.20, -43.54, 24.52, 30.20, 43.61, 44.10, 42.07, 43.16
-19, -35.38, -42.89, 26.67, 27.51, 43.34, 42.07, 41.37, 40.68
-18, -36.43, -34.62, 22.75, 29.68, 49.06, 45.31, 43.34, 41.46
-17, -33.37, -29.82, 30.40, 23.83, 49.89, 41.46, 48.21, 41.19
-16, -24.79, -15.76, 26.02, 35.29, 59.14, 50.18, 49.58, 48.41
-15, -35.05, -23.80, 21.32, 24.94, 43.74, 40.48, 37.73, 36.95
-14, -31.99, -29.93, 15.89, 34.24, 43.23, 50.09, 38.44, 45.31
-13, -37.42, -39.70, 25.64, 27.45, 33.89, 45.91, 37.19, 43.81
-12, -28.32, -24.05, 23.74, 40.72, 46.56, 61.76, 49.17, 61.00
-11, -38.76, -24.79, 25.57, 30.96, 36.46, 50.29, 48.57, 55.77
-10, -26.53, -8.63, 24.41, 45.28, 53.93, 62.47, 56.71, 66.94
-9, -38.04, -20.65, 19.92, 32.66, 41.51, 47.18, 46.20, 54.02
-8, -34.06, -19.29, 12.27, 45.11, 50.83, 57.22, 48.84, 59.55
-7, -43.50, -30.78, 12.23, 30.80, 35.54, 43.38, 42.24, 47.72
-6, -23.42, -15.56, 18.98, 45.17, 50.85, 57.00, 53.26, 56.08
-5, -26.08, -26.38, 19.54, 30.60, 37.46, 43.45, 45.08, 43.50
-4, -12.63, -19.65, 20.25, 40.61, 46.02, 52.03, 49.64, 47.12
-3, -20.72, -27.51, 20.52, 29.26, 34.56, 40.10, 39.20, 35.85
-2, -25.35, -18.78, 11.15, 36.97, 39.36, 46.56, 39.94, 39.70
-1, -37.31, -26.76, 5.14, 24.88, 22.89, 32.03, 31.56, 28.74
0, -35.56, -16.21, 3.84, 22.64, 21.23, 25.32, 35.00, 23.87
-29, -29.08, -17.23, 10.82, 26.71, 28.14, 29.41, 41.75, 27.16
-28, -32.01, -24.12, 5.88, 26.69, 25.73, 31.36, 38.24, 29.06
-27, -35.67, -26.89, 5.74, 26.51, 30.62, 34.53, 42.47, 31.02
-26, -34.18, -26.29, 0.16, 28.27, 27.89, 37.17, 39.85, 34.62
-25, -32.75, -14.44, -6.82, 31.02, 13.66, 37.93, 38.29, 38.42
-24, -32.79, -13.39, 0.96, 25.32, 7.06, 30.31, 36.66, 34.60
-23, -30.31, -11.65, -3.11, 31.96, 8.92, 34.80, 37.44, 39.43
-22, -26.93, -17.41, -0.92, 30.29, 12.11, 35.49, 44.26, 42.27
-21, -37.44, -21.19, -0.54, 17.14, 1.10, 22.37, 36.81, 31.09
-20, -32.25, -13.88, -4.05, 27.85, 12.67, 33.28, 42.36, 35.99
-19, -35.65, -20.21, 0.02, 17.10, 5.70, 20.18, 35.27, 23.11
-18, -28.05, -13.28, -0.36, 29.39, 21.35, 29.33, 41.48, 29.71
-17, -38.29, -23.34, 1.05, 13.03, 7.91, 15.58, 33.80, 16.94
-16, -22.60, -7.33, -4.90, 25.41, 15.96, 23.40, 35.00, 18.80
-15, -34.47, -15.49, -7.09, 9.92, 0.00, 7.73, 25.91, 5.79
-14, -20.92, -4.72, -10.01, 21.59, 7.35, 17.79, 29.15, 10.89
-13, -24.16, -14.73, -13.25, 8.81, -8.83, 2.46, 14.98, -6.46
-12, -15.42, -7.69, -10.04, 21.75, 4.09, 11.42, 18.62, -0.02
-11, -27.98, -14.15, -9.54, 7.40, -8.34, -2.73, 8.76, -11.04
-10, -24.99, -6.64, -4.60, 14.17, 1.90, 2.48, 8.18, -8.34
-9, -33.77, -13.72, -5.19, 5.63, -1.74, -7.31, 0.25, -16.65
-8, -29.84, -8.34, 0.11, 13.95, 10.66, 6.30, 10.24, -4.94
-7, -38.02, -20.18, -1.56, 8.45, 11.00, 5.79, 14.24, 1.30
-6, -32.34, -15.85, 0.42, 14.51, 16.47, 12.72, 18.84, 7.60
-5, -30.55, -10.68, -7.80, 4.67, 6.15, 12.38, 11.71, 7.29
-4, -22.44, -5.63, 0.58, 3.22, 2.12, 11.80, 13.97, 12.45
-3, -20.65, -7.35, 7.11, 10.44, 5.41, 20.90, 18.46, 23.69
-2, -24.10, -7.49, 13.10, 10.19, 4.96, 18.93, 19.98, 20.16
-1, -27.49, -9.45, 9.63, 18.62, 13.84, 24.05, 24.50, 25.97
0, -37.77, -22.28, 19.18, 17.05, 17.41, 20.94, 29.39, 24.48
-29, -41.73, -24.70, 14.66, 26.93, 27.76, 30.26, 33.24, 30.49
-28, -48.55, -33.57, 20.79, 22.08, 21.61, 24.99, 30.55, 24.34
-27, -43.12, -24.43, 25.37, 40.19, 38.04, 41.84, 44.01, 39.23
-26, -46.72, -23.83, 17.26, 45.22, 37.33, 46.29, 40.88, 36.99
-25, -56.35, -29.15, 16.79, 29.48, 25.41, 32.01, 29.93, 21.75
-24, -48.17, -20.74, 24.36, 48.50, 46.16, 52.62, 44.97, 40.21
-23, -60.55, -38.00, 29.53, 41.40, 44.48, 44.37, 42.54, 31.69
-22, -45.84, -26.42, 32.21, 52.84, 61.87, 54.90, 52.12, 40.17
-21, -53.85, -30.60, 34.76, 41.69, 47.43, 43.74, 47.03, 30.60
-20, -48.30, -26.67, 36.28, 56.10, 57.15, 58.85, 56.30, 45.24
-19, -61.00, -29.57, 35.74, 42.24, 39.20, 42.98, 46.54, 34.69
-18, -49.46, -13.43, 38.29, 55.41, 51.90, 53.24, 52.41, 44.41
-17, -54.31, -20.94, 43.41, 47.07, 46.76, 45.42, 49.75, 42.45
-16, -41.95, -16.94, 42.56, 51.30, 57.38, 53.89, 53.89, 47.99
-15, -49.78, -25.46, 41.10, 41.08, 46.25, 49.73, 48.37, 47.32
-14, -43.18, -20.43, 38.80, 45.71, 48.84, 57.56, 53.60, 54.49
-13, -45.51, -24.68, 29.93, 37.15, 39.79, 49.20, 43.32, 47.21
-12, -39.58, -22.75, 21.19, 38.67, 41.64, 50.45, 42.85, 51.10
-11, -33.26, -18.24, 27.56, 42.18, 41.78, 52.10, 46.60, 53.00
-10, -34.89, -16.09, 24.05, 45.44, 40.19, 55.75, 45.13, 57.22
-9, -35.79, -15.11, 24.07, 42.24, 33.19, 49.22, 37.46, 49.13
-8, -32.01, -10.95, 18.95, 43.07, 34.85, 47.99, 33.19, 44.99
-7, -32.32, -13.95, 19.20, 32.23, 23.36, 35.05, 22.78, 29.17
-6, -28.32, -9.23, 13.05, 36.41, 26.73, 36.55, 21.26, 28.48
-5, -32.63, -10.10, 14.77, 22.37, 14.86, 14.62, 13.77, 10.39
-4, -21.70, -1.41, 10.42, 29.35, 23.04, 16.03, 17.39, 10.73
-3, -29.79, -10.51, 12.25, 15.00, 12.99, -0.65, 12.41, -1.72
-2, -21.79, -1.63, 4.76, 24.94, 21.14, 6.53, 14.06, -0.65
-1, -29.44, -7.60, 5.68, 12.41, 8.11, -2.88, 4.98, -15.38
0, -13.30, 3.02, 2.77, 25.79, 18.89, 13.93, 13.19, -3.42
-29, -18.06, -6.17, 4.90, 12.83, 10.19, 4.38, 9.79, -8.09
-28, -6.48, 1.23, 3.67, 25.57, 28.16, 23.02, 23.31, 10.77
-27, -18.48, -8.92, 7.38, 10.91, 20.59, 14.73, 26.04, 12.74
-26, -9.75, 2.53, 8.69, 22.71, 39.90, 31.29, 44.55, 35.32
-25, -16.00, -3.71, 0.29, 8.49, 24.72, 18.71, 31.99, 27.47
-24, -4.09, 7.20, -2.37, 19.67, 30.96, 30.80, 39.00, 41.37
-23, -8.16, 0.78, -8.96, 7.87, 17.99, 18.42, 29.12, 34.96
-22, 2.21, 4.34, -5.81, 18.82, 23.51, 26.08, 31.90, 42.11
-21, -13.90, -2.82, -13.55, 10.86, 10.91, 15.60, 16.85, 29.79
-20, -12.74, 6.57, -8.47, 12.74, 15.89, 18.69, 16.88, 33.68
-19, -17.75, 4.14, -12.79, 9.57, 4.38, 10.33, 5.92, 24.18
-18, -6.71, 4.22, -10.73, 11.33, 2.86, 3.84, 2.46, 14.19
-17, -5.79, 5.48, -13.72, 7.38, -3.26, -6.33, -2.64, 7.78
-16, -5.79, 7.49, -6.39, 8.27, -2.75, -11.96, -2.12, -0.02
-15, -4.60, 1.79, -4.36, 10.17, 1.39, -10.77, -1.34, 0.72
-14, -6.44, 10.97, -0.98, 7.38, 0.31, -6.15, -10.59, -1.72
-13, -9.79, 4.07, 3.15, -0.40, -6.15, -11.85, -11.87, -12.76
-12, -7.44, 11.47, -3.60, 6.46, 2.24, -4.52, -10.37, -10.80
-11, -21.68, 3.08, 6.41, 0.29, -0.74, -9.75, -6.17, -15.00
-10, -20.25, 5.81, 4.00, 14.39, 13.72, 8.18, 9.16, 3.33
-9, -9.79, 8.81, -1.07, 11.82, 10.68, 12.18, 8.74, 7.40
-8, -17.43, 0.34, -2.70, 0.40, -1.74, 5.34, 6.03, 4.65
-7, -6.17, 15.33, -8.00, 10.42, 6.68, 17.21, 10.93, 18.19
-6, -17.88, 7.58, 2.35, 3.15, -2.93, 10.80, 10.66, 19.18
-5, -12.20, 18.69, 4.63, 20.41, 12.52, 27.47, 22.15, 36.84
-4, -24.01, 10.86, -3.11, 4.18, -3.35, 10.68, 7.42, 24.16
-3, -11.18, 23.07, -11.51, 13.52, -1.32, 15.89, 3.08, 25.48
-2, -17.77, 21.35, -17.48, 12.11, -11.33, 9.37, -11.22, 17.46
-1, -21.19, 20.72, -17.77, 5.95, -18.75, -3.31, -20.59, -1.72
0, -27.05, 17.14, -22.37, -6.46, -32.14, -25.44, -30.38, -18.78
-29, -16.05, 26.44, -17.90, -3.42, -24.79, -25.30, -25.44, -16.70
-28, -20.07, 28.86, -26.08, -11.89, -29.95, -35.38, -35.05, -28.21
-27, -15.94, 35.87, -23.78, -10.21, -33.17, -37.60, -39.20, -35.65
-26, -18.91, 34.91, -32.07, -14.33, -38.49, -38.31, -43.94, -40.08
-25, -14.33, 34.18, -30.49, -14.51, -39.50, -36.19, -42.24, -45.55
-24, -12.90, 34.73, -34.67, -13.72, -42.07, -34.15, -44.57, -48.17
-23, -9.54, 30.15, -36.17, -23.22, -48.84, -39.34, -49.35, -55.34
-22, -5.34, 32.75, -37.39, -18.71, -42.85, -31.47, -46.94, -49.08
-21, -3.80, 30.02, -33.13, -25.86, -50.20, -38.69, -50.49, -57.56
-20, 6.93, 38.96, -38.24, -19.51, -42.02, -28.97, -45.08, -47.56
-19, 1.23, 39.52, -34.87, -26.40, -50.13, -34.94, -43.90, -47.88
-18, 9.10, 43.92, -39.81, -16.52, -39.50, -23.16, -37.01, -33.46
-17, 4.54, 40.79, -40.61, -33.48, -53.55, -40.12, -47.30, -45.08
-16, 16.83, 53.42, -47.03, -24.72, -46.49, -32.70, -43.45, -35.27
-15, 7.31, 45.11, -45.69, -36.55, -60.80, -44.32, -50.31, -41.98
-14, 22.80, 59.30, -52.12, -27.87, -55.14, -36.57, -50.27, -35.09
-13, 19.13, 52.41, -62.41, -47.83, -76.96, -58.54, -72.17, -55.90
-12, 31.00, 65.69, -73.54, -42.83, -80.71, -60.33, -80.06, -58.32
-11, 34.02, 62.07, -79.35, -66.05, -106.48, -88.24, -101.88, -84.47
-10, 63.99, 81.03, -83.37, -61.82, -104.14, -91.11, -106.44, -89.34
-9, 63.39, 73.40, -86.90, -78.03, -124.77, -111.07, -120.03, -107.38
-8, 81.70, 83.98, -97.86, -74.77, -128.46, -112.81, -128.63, -117.93
-7, 80.94, 79.68, -104.11, -91.89, -148.50, -135.30, -146.18, -139.30
-6, 92.02, 94.66, -103.42, -87.22, -146.43, -132.70, -145.13, -142.81
-5, 92.54, 98.35, -118.31, -105.99, -160.73, -153.98, -158.45, -162.70
-4, 104.29, 110.28, -115.92, -107.74, -158.65, -156.86, -155.72, -168.11
-3, 105.16, 115.40, -124.03, -113.73, -165.43, -164.84, -163.03, -179.42
-2, 106.53, 118.49, -123.76, -115.31, -165.27, -165.74, -162.41, -182.95
-1, 110.26, 114.06, -129.51, -120.83, -167.91, -168.04, -165.56, -185.65
0, 118.42, 115.56, -121.50, -123.92, -169.83, -167.12, -164.08, -184.11
-29, 120.50, 117.41, -124.39, -124.97, -164.73, -165.38, -160.71, -175.66
-28, 124.12, 114.31, -120.99, -133.15, -167.19, -171.84, -157.87, -173.90
-27, 126.40, 124.16, -122.42, -126.89, -162.18, -166.95, -156.84, -166.45
-26, 115.31, 123.09, -112.99, -129.46, -167.75, -167.15, -156.31, -163.19
-25, 121.39, 130.96, -116.47, -118.22, -161.49, -152.60, -152.13, -149.82
-24, 114.35, 122.13, -115.38, -126.85, -175.95, -160.35, -162.32, -158.16
-23, 121.73, 120.81, -114.89, -114.78, -165.13, -143.48, -155.84, -143.74
-22, 109.28, 110.08, -112.59, -122.85, -176.33, -149.15, -159.81, -147.01
-21, 115.36, 121.08, -117.73, -110.37, -167.53, -135.25, -157.71, -138.27
-20, 107.47, 110.95, -113.21, -122.91, -179.22, -144.19, -165.22, -146.49
-19, 116.68, 121.82, -116.79, -108.50, -166.43, -132.79, -161.07, -136.28
-18, 109.66, 111.09, -115.02, -121.84, -179.71, -149.31, -170.10, -149.67
-17, 119.94, 114.66, -114.26, -108.05, -163.30, -137.89, -164.80, -141.58
-16, 114.91, 108.58, -111.42, -104.76, -162.23, -140.86, -169.87, -153.94
-15, 102.80, 97.43, -115.83, -115.96, -172.69, -157.94, -179.73, -170.30
-14, 108.56, 99.29, -112.47, -104.25, -157.58, -152.91, -172.58, -167.75
-13, 97.45, 88.11, -102.62, -103.18, -149.71, -153.38, -158.32, -163.86
-12, 87.48, 81.83, -103.47, -108.34, -154.54, -158.00, -159.28, -168.15
-11, 91.13, 81.25, -89.81, -99.20, -142.92, -144.50, -141.51, -155.05
-10, 82.46, 74.97, -94.26, -100.27, -142.85, -143.03, -134.60, -148.97
-9, 75.50, 70.63, -92.65, -94.41, -131.00, -130.40, -121.03, -131.27
-8, 70.79, 73.31, -84.58, -92.74, -124.10, -124.83, -114.08, -122.44
-7, 69.09, 74.19, -90.37, -88.94, -118.60, -115.98, -113.77, -113.50
-6, 66.41, 61.78, -76.93, -85.74, -116.41, -106.37, -110.02, -105.97
-5, 66.16, 63.39, -76.78, -73.20, -107.40, -89.79, -102.39, -89.43
-4, 54.56, 58.23, -71.37, -67.23, -101.61, -85.36, -98.79, -83.71
-3, 39.00, 51.21, -63.50, -74.12, -107.80, -93.32, -103.33, -89.47
-2, 42.20, 59.39, -64.22, -60.66, -92.92, -85.29, -95.69, -82.57
-1, 24.25, 38.38, -52.15, -64.64, -94.26, -87.02, -93.18, -84.94
0, 25.46, 35.72, -46.63, -42.00, -75.06, -62.90, -82.99, -69.42
-29, 17.01, 21.77, -37.39, -51.14, -77.72, -70.52, -82.88, -76.06
-28, 2.44, 3.93, -33.10, -42.54, -64.98, -63.99, -77.90, -74.34
-27, 11.56, 13.14, -30.53, -25.86, -48.41, -49.06, -63.52, -61.65
-26, -10.17, 1.23, -23.47, -33.42, -58.20, -56.68, -62.09, -66.34
-25, -25.17, 0.76, -8.63, -18.73, -38.96, -34.89, -38.98, -42.83
-24, -16.76, 6.62, -3.26, -5.36, -20.54, -21.48, -26.80, -29.08
-23, -29.71, -8.20, -1.10, -11.76, -20.61, -27.65, -28.03, -29.75
-22, -23.78, -2.06, 4.34, 0.36, -4.07, -12.27, -11.67, -13.84
-21, -34.22, -15.85, 2.86, -1.65, -4.45, -5.90, -4.58, -3.58
-20, -32.92, -13.50, 9.79, 7.85, 5.07, 4.38, 5.79, 9.99
-19, -36.86, -13.97, 8.72, 9.07, 7.73, 5.28, 9.77, 15.11
-18, -37.13, -18.84, 10.68, 13.37, 13.34, 10.26, 13.28, 19.65
-17, -43.56, -20.00, 9.72, 12.52, 14.91, 8.76, 11.02, 19.13
-16, -46.27, -18.55, 15.69, 11.18, 12.47, 5.05, 10.44, 13.12
-15, -52.24, -20.43, 11.29, 15.78, 16.05, 13.23, 13.84, 18.40
-14, -54.40, -29.03, 16.29, 13.95, 12.29, 12.16, 13.10, 15.45
-13, -49.75, -23.40, 13.97, 24.12, 17.30, 19.67, 15.47, 19.56
-12, -53.82, -30.69, 20.21, 17.50, 9.83, 14.42, 11.67, 13.34
-11, -43.74, -27.83, 22.93, 28.45, 20.50, 27.51, 17.28, 22.73
-10, -53.62, -38.44, 21.41, 16.85, 10.68, 18.95, 12.18, 15.78
-9, -48.91, -29.73, 16.88, 27.29, 20.25, 25.91, 15.85, 20.32
-8, -57.62, -38.02, 17.50, 16.76, 14.55, 12.67, 14.33, 9.50
-7, -52.79, -30.78, 11.58, 31.72, 30.15, 25.50, 27.74, 20.63
-6, -63.97, -38.87, 16.52, 21.55, 19.22, 13.70, 22.93, 8.92
-5, -49.06, -32.25, 18.69, 36.93, 35.25, 29.37, 35.81, 24.63
-4, -58.90, -44.26, 16.92, 23.85, 19.38, 20.09, 32.28, 21.41
-3, -59.84, -44.99, 12.09, 21.28, 26.55, 18.60, 33.48, 24.05
-2, -48.57, -35.07, 17.52, 35.67, 45.93, 33.30, 48.35, 41.53
-1, -59.28, -49.13, 9.68, 24.48, 35.65, 20.27, 32.12, 26.89
0, -51.03, -44.35, 16.23, 34.11, 47.59, 29.10, 37.10, 37.73
-29, -55.23, -47.05, 17.28, 24.56, 35.81, 20.27, 33.26, 35.61
-28, -46.00, -36.81, 20.30, 31.49, 45.33, 29.62, 42.65, 42.76
-27, -44.68, -29.44, 30.71, 33.19, 52.66, 40.26, 56.71, 49.37
-26, -48.17, -33.08, 25.41, 34.60, 46.74, 46.45, 51.90, 50.31
-25, -43.12, -31.29, 28.61, 36.86, 45.60, 51.57, 52.10, 52.28
-24, -44.06, -33.08, 27.78, 37.26, 45.49, 54.69, 51.14, 54.99
-23, -41.04, -33.57, 34.73, 37.71, 44.77, 56.10, 54.78, 53.78
-22, -39.56, -30.42, 31.14, 39.63, 51.86, 60.13, 59.61, 59.57
-21, -49.22, -36.77, 35.47, 33.24, 46.87, 48.64, 56.39, 51.59
-20, -46.34, -36.68, 36.08, 42.04, 52.62, 55.88, 58.29, 58.03
-19, -47.03, -42.69, 40.61, 32.72, 42.92, 40.30, 54.49, 49.11
-18, -39.38, -31.14, 40.23, 43.70, 52.68, 45.84, 63.84, 54.23
-17, -46.56, -36.77, 47.23, 35.11, 43.54, 43.16, 61.91, 48.10
-16, -35.32, -26.24, 44.73, 45.20, 56.91, 55.63, 69.87, 58.49
-15, -48.32, -32.10, 48.44, 31.49, 51.50, 41.15, 69.34, 51.16
-14, -38.15, -25.82, 44.21, 44.79, 68.17, 56.48, 81.23, 67.39
-13, -49.91, -44.14, 43.70, 32.41, 57.02, 44.84, 74.79, 58.72
-12, -42.71, -41.46, 38.56, 44.93, 67.46, 56.77, 78.92, 66.23
-11, -56.57, -49.33, 35.43, 28.97, 50.49, 41.24, 66.23, 51.19
-10, -48.84, -39.74, 34.27, 42.65, 60.04, 55.63, 64.15, 57.27
-9, -62.65, -47.48, 31.38, 27.20, 41.86, 40.01, 52.37, 44.61
-8, -42.71, -26.87, 33.77, 36.95, 51.86, 52.41, 60.31, 56.64
-7, -48.82, -32.25, 29.12, 27.14, 38.87, 45.80, 52.03, 48.88
-6, -36.66, -26.69, 25.55, 35.29, 45.51, 54.74, 52.71, 54.94
-5, -36.57, -32.72, 22.33, 25.73, 34.11, 45.69, 40.55, 44.97
-4, -31.18, -32.23, 26.84, 34.49, 42.09, 52.88, 42.89, 47.56
-3, -41.40, -41.57, 19.98, 28.92, 36.68, 43.94, 36.59, 42.69
-2, -35.16, -37.08, 24.72, 32.79, 39.16, 46.42, 36.19, 42.36
-1, -38.18, -38.51, 20.68, 28.16, 35.47, 41.62, 32.07, 38.09
0, -33.42, -31.05, 22.91, 27.89, 37.28, 35.76, 35.61, 36.77
-29, -37.35, -30.00, 18.35, 28.36, 35.16, 36.57, 34.22, 37.39
-28, -41.37, -32.01, 23.00, 25.12, 29.44, 35.38, 32.10, 33.95
-27, -38.69, -35.14, 18.40, 29.46, 36.10, 39.25, 34.67, 37.86
-26, -39.94, -43.83, 25.62, 25.88, 37.31, 33.15, 37.62, 30.62
-25, -34.11, -40.93, 22.87, 34.13, 47.18, 42.42, 44.21, 40.03
-24, -40.10, -43.54, 31.69, 25.21, 44.64, 37.93, 47.65, 39.41
-23, -29.48, -24.59, 29.97, 36.48, 58.00, 50.00, 59.86, 53.78
-22, -37.86, -25.24, 30.42, 23.72, 45.49, 43.90, 51.99, 47.23
-21, -27.54, -18.98, 28.79, 34.38, 55.01, 58.36, 59.03, 59.72
-20, -32.48, -30.00, 23.49, 20.47, 41.53, 39.74, 50.92, 44.73
-19, -21.30, -20.99, 18.84, 33.17, 50.22, 47.59, 57.40, 53.91
-18, -35.92, -33.15, 14.04, 21.10, 37.44, 35.07, 49.96, 43.99
-17, -24.63, -19.42, 7.51, 32.34, 47.74, 38.44, 47.68, 41.44
-16, -33.04, -27.69, 6.08, 17.75, 29.03, 27.87, 30.13, 27.74
-15, -22.46, -18.91, 9.43, 31.47, 43.09, 41.19, 38.78, 40.95
-14, -32.07, -28.05, 7.87, 19.47, 30.67, 28.12, 28.07, 30.87
-13, -24.50, -19.51, 7.69, 32.79, 44.26, 40.37, 37.77, 43.23
-12, -31.05, -34.82, 7.13, 21.55, 38.58, 26.42, 38.87, 36.25
-11, -20.45, -33.62, 4.00, 30.20, 44.66, 29.71, 37.55, 32.14
-10, -30.11, -37.73, 4.36, 18.57, 31.02, 14.80, 25.86, 17.93
-9, -21.66, -25.12, 5.16, 25.26, 31.69, 19.00, 27.36, 20.32
-8, -30.64, -21.48, 4.14, 22.37, 27.92, 17.55, 24.81, 17.19
-7, -27.83, -15.65, 8.99, 27.05, 35.16, 24.52, 30.15, 18.24
-6, -29.35, -22.75, 6.37, 23.45, 34.02, 24.39, 27.25, 16.56
-5, -23.65, -28.01, 17.55, 21.88, 40.50, 27.20, 32.66, 20.54
-4, -21.26, -25.26, 17.46, 22.66, 44.93, 28.57, 34.22, 23.45
-3, -23.65, -22.62, 25.55, 22.06, 44.84, 25.66, 35.05, 22.49
-2, -27.92, -17.57, 27.45, 30.35, 56.55, 34.91, 45.22, 32.79
-1, -19.67, -18.40, 23.51, 18.02, 45.71, 25.32, 38.56, 24.32
0, -8.43, -12.03, 17.14, 18.22, 49.73, 28.32, 42.38, 33.37
-29, -9.70, -17.34, 18.28, 5.30, 41.35, 19.87, 39.12, 31.38
-28, 3.73, -9.66, 1.68, 3.08, 39.61, 17.32, 30.26, 29.68
-27, 2.19, -13.28, 2.48, -15.94, 22.33, -4.92, 16.41, 11.87
-26, 9.92, -3.00, -3.87, -7.44, 31.63, 0.22, 10.33, 14.06
-25, 3.60, -12.29, -6.26, -24.94, 13.57, -20.00, -7.33, -5.59
-24, 25.68, 0.54, -11.13, -18.86, 15.33, -14.55, -8.40, -1.83
-23, 14.35, -9.32, -9.70, -32.72, -3.22, -28.36, -21.14, -14.93
-22, 34.38, -1.01, -11.87, -21.50, 5.23, -19.42, -16.25, -9.72
-21, 38.15, -6.64, -11.11, -43.07, -17.41, -44.14, -32.57, -30.42
-20, 50.96, 7.00, -9.25, -31.58, -2.17, -39.52, -24.12, -27.11
-19, 44.01, 0.20, -10.35, -48.50, -14.10, -59.79, -36.41, -45.53
-18, 46.74, 8.90, -5.54, -37.08, -6.48, -47.27, -33.17, -37.57
-17, 36.57, 1.27, -14.93, -48.46, -27.43, -61.13, -49.93, -53.22
-16, 49.71, 13.28, -15.13, -42.11, -26.82, -53.91, -50.87, -52.77
-15, 43.18, 5.63, -16.07, -49.93, -37.01, -64.06, -58.09, -62.65
-14, 45.96, 12.85, -12.09, -41.69, -31.90, -60.55, -47.63, -61.85
-13, 33.93, 4.92, -8.85, -46.07, -37.77, -65.00, -47.30, -65.45
-12, 39.03, 5.86, -2.17, -41.71, -31.14, -58.23, -37.66, -58.25
-11, 34.60, 0.85, -3.89, -41.82, -27.43, -55.34, -30.89, -50.94
-10, 37.95, 1.59, 2.32, -39.61, -20.68, -51.05, -23.69, -47.10
-9, 38.85, -0.74, 0.94, -34.94, -11.96, -42.36, -21.44, -39.70
-8, 34.60, -6.39, 10.82, -31.23, -6.79, -36.46, -17.55, -33.37
-7, 21.82, -1.25, 6.48, -18.04, 2.86, -19.20, -6.97, -11.78
-6, 13.59, -8.20, 8.72, -17.99, -2.50, -18.42, -5.41, -7.04
-5, 17.75, -4.52, 6.37, -9.66, 6.12, -8.45, 2.24, 6.35
-4, 11.73, -9.92, 10.39, -18.22, -1.86, -15.45, 0.42, 2.55
-3, 23.65, -3.93, 14.26, -5.70, 11.00, -0.94, 4.98, 14.10
-2, 25.28, -1.70, 19.40, -0.27, 18.78, 5.90, 6.64, 18.48
-1, 14.24, -13.03, 19.87, -11.40, 5.88, -12.14, -2.01, 3.11
0, 22.26, -8.11, 21.73, 3.71, 21.10, -3.42, 6.46, 9.23
-29, 9.21, -22.17, 18.89, -10.06, 7.17, -16.05, -1.30, -2.48
-28, 15.58, -14.46, 20.94, 5.48, 23.00, -4.20, 10.08, 8.40
-27, 1.61, -26.67, 25.50, -4.20, 16.94, -13.08, 11.85, 1.30
-26, 4.60, -15.96, 28.48, 9.48, 31.81, 2.24, 21.73, 11.53
-25, 0.58, -24.81, 28.90, -0.27, 22.31, -7.33, 15.15, 2.24
-24, 22.28, -17.17, 35.52, 15.09, 35.03, 6.88, 28.03, 13.12
-23, 10.46, -26.08, 29.57, 5.97, 22.64, 0.96, 20.18, 8.23
-22, 17.26, -14.31, 28.52, 17.77, 28.57, 14.44, 27.85, 19.18
-21, 5.25, -21.86, 27.63, 11.85, 21.59, 12.56, 27.29, 19.24
-20, 0.85, -14.84, 34.73, 22.17, 33.68, 28.97, 42.92, 34.73
-19, -3.49, -18.80, 30.91, 19.62, 32.45, 32.25, 41.10, 37.06
-18, 12.43, -14.46, 27.22, 18.15, 31.61, 36.01, 40.30, 36.66
-17, 15.91, -17.39, 13.95, 12.43, 24.10, 32.39, 32.37, 33.21
-16, 8.40, -6.79, 8.20, 14.35, 20.00, 35.23, 25.91, 35.09
-15, 5.19, -7.80, 11.69, 11.15, 18.57, 31.27, 26.42, 33.26
-14, 4.07, -9.63, 4.96, 16.38, 24.88, 33.39, 27.98, 34.56
-13, -1.90, -18.46, 6.17, 4.94, 16.25, 19.62, 22.15, 22.73
-12, 1.25, -13.95, -2.70, 8.52, 21.08, 22.78, 22.53, 22.73
-11, -13.57, -22.46, 3.55, 3.29, 14.22, 14.75, 17.10, 13.48
-10, -14.26, -17.59, 2.62, 15.87, 26.49, 26.62, 24.74, 26.78
-9, -21.23, -25.21, 6.15, 6.57, 13.90, 14.19, 19.27, 18.82
-8, -2.03, -18.33, 4.11, 17.86, 22.62, 20.90, 24.68, 25.53
-7, -15.56, -24.23, 9.54, 5.90, 12.92, 4.56, 23.42, 18.60
-6, -12.05, -12.45, 13.28, 20.03, 30.78, 15.91, 36.03, 30.35
-5, -19.92, -22.02, 10.66, 7.24, 17.72, 2.95, 25.24, 16.90
-4, -21.59, -33.77, -4.92, 6.03, 14.82, 1.39, 20.70, 12.94
-3, -3.64, -25.48, -6.66, 18.46, 25.79, 17.99, 34.58, 24.01
-2, -14.53, -25.68, -12.34, 4.43, 12.16, 9.34, 20.92, 14.60
-1, -9.68, -13.08, -10.01, 12.27, 26.35, 13.97, 31.78, 23.49
0, -21.97, -19.74, -12.63, 2.70, 15.20, 2.21, 17.68, 15.27
-29, -8.11, -10.44, -7.35, 13.99, 22.82, 12.87, 22.40, 25.70
-28, -11.29, -19.02, -7.76, 7.49, 17.70, 6.15, 26.80, 27.58
-27, -3.06, -17.59, -7.91, 13.50, 22.02, 11.65, 31.58, 30.96
-26, -7.93, -23.25, -12.85, 5.83, 12.52, 4.25, 25.12, 24.63
-25, -9.54, -18.40, -6.03, 7.64, 16.58, 7.87, 33.48, 33.26
-24, -11.09, -20.99, -15.13, 6.86, 15.40, 5.45, 30.87, 35.23
-23, -6.24, -15.29, -10.95, 8.02, 13.75, 10.44, 30.53, 36.57
-22, -4.83, -11.91, -18.66, 10.62, 15.36, 18.51, 29.57, 43.47
-21, -3.33, -15.74, -17.88, 4.47, 7.00, 16.32, 19.42, 33.62
-20, -6.95, -17.41, -22.15, 11.02, 11.20, 23.00, 19.29, 34.85
-19, -14.89, -25.01, -17.64, 4.54, 1.70, 18.53, 16.43, 28.70
-18, -4.90, -14.86, -20.00, 13.93, 10.55, 29.50, 25.44, 36.63
-17, -6.10, -18.28, -19.33, 5.39, 3.20, 19.98, 19.62, 25.48
-16, 2.84, -8.45, -21.37, 14.04, 13.21, 30.11, 25.21, 32.05
-15, -1.92, -14.62, -16.67, 1.54, 1.30, 18.98, 13.90, 17.50
-14, 6.71, -11.09, -21.52, 16.34, 15.60, 33.44, 19.67, 26.44
-13, -4.18, -29.03, -22.28, 2.95, 2.59, 19.92, 11.51, 12.58
-12, -2.03, -10.57, -23.45, 17.88, 15.04, 30.53, 15.67, 16.99
-11, -7.85, -16.27, -21.08, 5.61, 6.01, 16.18, 5.72, 1.54
-10, 8.11, -2.68, -18.46, 20.52, 21.39, 28.86, 14.95, 11.80
-9, -0.67, -7.71, -13.99, 9.95, 10.04, 17.79, 8.38, -1.23
-8, 18.84, 0.31, -15.91, 22.98, 19.56, 29.71, 10.84, 3.53
-7, 6.08, -12.14, -19.09, 11.22, 6.03, 14.31, 2.17, -6.75
-6, 14.69, -6.79, -16.45, 21.88, 15.76, 22.28, 8.94, 0.92
-5, 4.60, -11.60, -9.23, 11.69, 8.05, 11.06, 2.66, -5.86
-4, 8.47, -3.76, -5.90, 19.80, 16.03, 18.37, 7.17, 0.94
-3, 9.83, -10.46, -8.69, 11.20, 9.03, 9.05, 2.12, -4.76
-2, 24.77, -0.80, -1.77, 15.11, 16.58, 12.18, 7.09, -1.16
-1, 19.69, -2.21, -6.71, 11.11, 13.34, 5.10, 4.43, -2.03
0, 27.67, -5.10, -4.14, 12.96, 17.52, 8.76, 10.64, 4.25
-29, 18.15, -10.04, -9.97, 12.74, 15.15, 10.64, 12.09, 7.62
-28, 5.50, -14.33, -10.51, 12.76, 12.56, 10.30, 14.31, 6.30
-27, 0.67, -11.09, -20.97, 12.41, 11.11, 9.43, 13.55, 8.67
-26, 4.14, -15.15, -21.77, 4.22, 5.07, 1.10, 9.81, 3.00
-25, 13.25, -7.49, -21.03, 8.31, 10.71, 4.02, 8.72, 6.68
-24, 11.29, -8.29, -12.90, 0.20, 8.36, 0.58, 7.06, 1.27
-23, 11.04, -2.73, -16.45, 8.31, 20.36, 12.41, 12.74, 9.57
-22, 14.93, -6.28, -13.48, 13.12, 26.58, 22.04, 15.89, 14.28
-21, 5.30, -13.21, -12.65, 4.38, 17.68, 12.79, 12.63, 7.04
-20, 13.90, -2.01, -15.91, 18.08, 27.45, 26.55, 19.09, 15.80
-19, 16.76, 4.81, -19.29, 15.42, 26.84, 23.45, 22.89, 15.33
-18, 4.72, -8.47, -20.81, -1.83, 13.03, 6.48, 13.93, 1.97
-17, 16.83, -4.72, -16.72, 11.58, 23.96, 18.22, 20.97, 13.99
-16, 6.01, -15.76, -14.60, 0.47, 10.46, 5.34, 13.41, 3.87
-15, 13.25, 1.34, -14.33, 12.85, 21.17, 15.80, 21.39, 11.47
-14, 0.25, -7.85, -13.37, 2.10, 10.39, 7.51, 17.55, 4.72
-13, 5.54, 2.55, -14.42, 11.78, 18.89, 18.82, 20.85, 11.33
-12, -2.28, -3.49, -13.66, 3.76, 9.72, 11.40, 14.31, 4.47
-11, 9.54, -3.51, -10.89, 10.86, 18.57, 18.26, 18.35, 11.96
-10, 3.89, -12.83, -15.87, 1.65, 7.80, 9.10, 10.06, 4.45
-9, 10.08, -3.69, -12.07, 6.84, 11.89, 12.45, 12.23, 6.19
-8, 13.70, -4.72, -16.29, 4.49, 11.29, 9.48, 11.20, 4.54
-7, 15.38, -0.27, -11.78, 7.22, 13.50, 15.53, 15.09, 8.05
-6, 11.76, 1.48, -16.29, 7.04, 12.16, 16.85, 12.34, 8.72
-5, 15.24, -1.74, -7.98, 4.02, 11.78, 15.13, 13.95, 8.25
-4, 8.83, -1.72, -14.37, 5.30, 13.01, 14.98, 10.97, 9.83
-3, 5.90, -4.58, -10.24, 6.24, 16.38, 16.43, 14.82, 8.34
-2, 14.10, -4.81, -10.77, 7.26, 18.48, 16.96, 13.23, 4.74
-1, 6.17, -16.74, -5.97, -4.11, 7.22, 4.43, 5.97, -7.24
0, 13.17, -2.57, -9.37, 7.00, 17.37, 13.77, 11.60, 2.15
-29, 6.93, -4.63, -6.10, -4.09, 5.03, 2.86, 7.29, -5.10
-28, 19.20, 6.21, -6.79, 9.19, 15.60, 16.36, 14.62, 3.76
-27, 4.38, 0.34, -5.16, -4.11, 2.93, 3.91, 5.81, -9.72
-26, 12.99, 13.46, -8.99, 7.17, 14.37, 12.87, 10.42, -0.02
-25, 0.56, -4.27, -10.82, -7.80, -3.13, -3.44, -0.80, -13.46
-24, 9.86, -3.60, -11.38, 7.24, 10.08, 9.19, 12.00, 2.24
-23, 3.15, -8.38, -10.26, -3.98, 0.63, -2.57, 7.11, -5.97
-22, 9.34, -3.67, -8.20, -6.50, 5.63, -0.98, 9.21, -5.25
-21, 20.54, 9.39, -3.31, 3.08, 19.40, 9.54, 15.09, 2.37
-20, 18.40, 5.59, -0.20, 1.25, 16.18, 8.20, 13.30, 2.12
-19, 10.17, -2.32, -2.37, -4.76, 8.11, 2.15, 6.71, -4.60
-18, 20.23, 5.99, -5.34, -4.58, 8.74, 0.72, 5.48, -5.25
-17, 13.72, -1.48, -2.19, -8.47, 7.58, -4.09, 6.26, -4.90
-16, 16.47, -1.21, -2.64, -5.23, 9.77, -2.19, 9.81, -4.14
-15, 20.85, 9.54, -17.90, -12.99, -2.01, -13.34, -2.68, -13.66
-14, 25.53, 15.22, -16.61, -18.71, -7.53, -17.59, -4.81, -18.93
-13, 33.19, 23.76, -35.43, -23.34, -16.96, -23.31, -17.12, -28.90
-12, 41.13, 27.69, -43.30, -39.50, -35.96, -41.15, -32.83, -47.90
-11, 52.41, 34.35, -46.85, -39.63, -37.53, -42.69, -34.18, -48.01
-10, 48.28, 27.78, -53.24, -51.86, -54.36, -57.06, -45.53, -62.85
-9, 62.45, 46.07, -81.07, -70.41, -80.82, -73.34, -70.25, -83.66
-8, 76.11, 62.83, -89.05, -64.95, -77.76, -67.66, -73.85, -81.72
-7, 75.21, 63.72, -96.22, -82.30, -99.29, -85.12, -89.94, -102.10
-6, 94.44, 79.66, -108.92, -78.21, -98.26, -84.00, -93.32, -103.47
-5, 91.22, 73.67, -113.84, -100.83, -121.93, -109.57, -110.22, -125.13
-4, 105.37, 84.65, -126.80, -92.92, -119.60, -106.42, -111.78, -125.10
-3, 101.05, 76.62, -128.61, -110.75, -140.15, -127.02, -125.10, -142.65
-2, 113.75, 87.86, -132.97, -100.49, -132.19, -118.35, -122.00, -136.61
-1, 104.23, 83.71, -133.37, -113.26, -149.89, -131.67, -131.90, -149.09
0, 109.30, 96.34, -120.99, -95.11, -130.11, -111.20, -113.59, -130.09
-29, 96.25, 91.78, -122.64, -103.80, -134.31, -121.28, -117.64, -135.18
-28, 108.56, 107.69, -119.89, -97.12, -124.01, -117.35, -114.66, -133.26
-27, 97.70, 98.55, -109.90, -100.58, -120.57, -119.85, -109.95, -130.74
-26, 98.66, 97.86, -101.12, -85.90, -102.80, -104.16, -96.47, -117.75
-25, 82.66, 92.45, -75.15, -73.87, -83.26, -81.90, -76.98, -97.16
-24, 69.34, 80.11, -68.46, -63.88, -69.11, -73.07, -66.63, -85.20
-23, 66.83, 80.85, -68.58, -61.09, -63.46, -69.72, -63.37, -81.41
-22, 51.63, 77.00, -61.96, -51.95, -53.80, -61.27, -56.55, -72.40
-21, 40.68, 66.43, -44.39, -39.61, -39.90, -48.91, -40.17, -58.74
-20, 30.31, 60.31, -44.73, -26.87, -29.64, -34.00, -31.99, -44.86
-19, 12.00, 47.01, -29.08, -20.74, -22.96, -26.04, -24.03, -37.13
-18, 4.36, 36.30, -22.58, -2.39, -4.20, -5.52, -9.01, -16.36
-17, -11.56, 21.82, -11.40, -1.90, -1.86, 0.58, -1.65, -10.30
-16, -16.76, 28.25, -7.49, 15.89, 10.44, 19.78, 8.52, 3.29
-15, -34.58, 18.15, 15.85, 21.35, 25.55, 32.12, 27.72, 15.78
-14, -30.49, 20.54, 10.97, 39.63, 44.32, 51.86, 42.51, 33.71
-13, -49.51, 6.39, 21.68, 33.89, 42.56, 43.03, 45.78, 32.59
-12, -47.63, 6.59, 27.38, 53.11, 66.47, 62.63, 65.07, 54.09
-11, -56.95, -7.22, 45.04, 60.10, 78.81, 68.98, 78.52, 62.45
-10, -72.04, -23.89, 49.69, 52.73, 74.97, 63.12, 77.99, 59.77
-9, -70.72, -21.57, 56.06, 70.39, 96.34, 84.27, 91.62, 77.18
-8, -84.62, -38.51, 60.35, 62.34, 87.66, 74.97, 88.83, 70.16
-7, -75.84, -29.77, 63.12, 74.10, 96.56, 83.24, 93.47, 76.22
-6, -89.50, -43.65, 71.30, 67.17, 93.16, 79.19, 93.59, 74.05
-5, -84.20, -32.32, 68.13, 78.07, 96.00, 91.44, 98.30, 82.12
-4, -92.89, -39.03, 67.28, 69.56, 88.33, 83.55, 94.46, 80.33
-3, -87.89, -37.04, 74.07, 79.46, 101.52, 97.19, 104.74, 93.85
-2, -93.12, -41.24, 68.89, 74.63, 94.15, 92.89, 101.45, 92.29
-1, -81.90, -39.12, 67.77, 76.00, 93.30, 89.18, 99.22, 88.78
0, -86.46, -42.11, 63.48, 73.96, 90.28, 86.81, 95.53, 87.89
-29, -85.85, -36.37, 61.96, 74.86, 84.22, 85.27, 92.34, 85.70
-28, -87.15, -34.27, 63.14, 76.44, 83.22, 85.94, 90.57, 86.55
-27, -83.39, -36.75, 75.68, 75.01, 91.22, 88.47, 98.17, 89.68
-26, -79.33, -35.47, 62.88, 76.02, 90.14, 87.17, 92.60, 87.17
-25, -87.04, -45.62, 63.61, 68.15, 87.53, 81.65, 91.17, 81.54
-24, -86.59, -42.69, 42.18, 60.01, 77.61, 70.39, 79.21, 70.25
-23, -75.33, -33.48, 40.72, 70.41, 86.08, 80.11, 85.41, 79.62
-22, -72.17, -32.83, 46.02, 59.17, 70.88, 68.22, 78.54, 70.41
-21, -65.38, -20.90, 50.11, 74.97, 86.28, 84.42, 92.07, 88.27
-20, -74.23, -38.56, 50.72, 57.67, 73.85, 63.41, 87.86, 73.67
-19, -60.98, -27.09, 46.58, 61.98, 77.31, 63.12, 70.92, 66.81
-18, -70.12, -34.76, 53.67, 48.50, 59.32, 50.60, 56.75, 55.75
-17, -55.19, -25.35, 52.50, 59.52, 66.09, 57.27, 56.28, 59.70
-16, -62.29, -34.22, 53.00, 42.20, 41.66, 39.36, 37.51, 42.49
-15, -54.07, -22.53, 57.82, 55.68, 53.06, 54.09, 54.16, 61.09
-14, -66.32, -35.41, 58.81, 44.30, 47.68, 43.47, 55.95, 54.58
-13, -51.45, -24.86, 54.74, 49.84, 53.15, 47.05, 52.68, 55.72
-12, -65.76, -34.27, 57.20, 37.80, 47.72, 43.05, 47.32, 52.79
-11, -61.60, -22.51, 59.75, 47.81, 59.43, 55.66, 58.38, 65.02
-10, -71.88, -27.54, 52.84, 40.59, 53.82, 50.13, 59.41, 63.12
-9, -59.30, -23.69, 57.00, 44.84, 64.17, 57.35, 64.40, 67.70
-8, -68.28, -30.24, 50.74, 40.08, 60.35, 54.31, 60.42, 64.26
-7, -61.11, -34.89, 51.07, 43.38, 64.78, 59.19, 62.83, 66.63
-6, -65.94, -40.48, 47.59, 34.27, 58.00, 46.78, 58.74, 55.14
-5, -57.38, -34.20, 48.06, 36.37, 57.02, 49.82, 59.72, 54.94
-4, -48.35, -25.48, 50.18, 33.77, 49.73, 49.62, 55.95, 49.64
-3, -37.37, -17.08, 42.49, 33.44, 51.81, 47.41, 53.29, 46.87
-2, -38.38, -14.86, 47.97, 27.40, 45.02, 40.03, 49.51, 41.15
-1, -33.89, -11.89, 41.95, 34.24, 46.22, 42.18, 44.50, 43.85
0, -43.54, -17.64, 47.14, 22.35, 34.49, 24.41, 30.87, 28.39
-29, -34.65, -14.31, 43.74, 31.83, 39.41, 33.01, 27.07, 30.24
-28, -42.71, -29.71, 44.59, 19.27, 26.62, 21.57, 18.28, 17.72
-27, -35.29, -18.78, 38.65, 29.28, 33.95, 32.95, 21.79, 24.83
-26, -41.19, -23.04, 42.20, 17.43, 22.28, 23.00, 14.35, 16.52
-25, -30.96, -11.29, 36.43, 27.02, 35.32, 31.87, 20.43, 27.60
-24, -46.04, -16.74, 33.57, 13.23, 20.97, 19.16, 9.52, 17.48
-23, -30.55, -5.79, 28.83, 24.90, 31.58, 28.70, 13.95, 25.59
-22, -42.13, -20.68, 22.93, 10.68, 16.70, 15.04, 8.27, 15.09
-21, -34.67, -15.65, 22.22, 22.60, 28.50, 28.16, 17.61, 26.58
-20, -32.75, -17.48, 29.15, 24.72, 21.48, 29.88, 14.28, 27.07
-19, -42.11, -28.57, 28.16, 10.48, 8.27, 11.29, 6.15, 16.47
-18, -33.59, -20.09, 27.05, 17.70, 16.79, 16.79, 7.24, 19.36
-17, -41.55, -29.15, 21.75, 10.80, 8.27, 10.93, 0.58, 13.99
-16, -34.58, -18.55, 22.98, 12.99, 16.52, 19.29, 1.30, 13.81
-15, -20.41, -12.16, 26.29, 13.17, 22.37, 13.77, 5.14, 13.70
-14, -25.88, -17.61, 22.53, 13.55, 20.38, 10.24, 5.79, 12.14
-13, -30.87, -22.80, 16.94, 12.54, 23.54, 10.24, 2.46, 12.43
-12, -34.65, -28.43, 17.23, 13.46, 17.26, 11.22, 2.68, 5.01
-11, -27.09, -20.72, 14.80, 15.51, 9.72, 12.45, -4.56, 2.15
-10, -27.07, -19.49, 20.21, 8.45, 1.34, 1.34, -7.42, -6.39
-9, -23.42, -10.59, 14.08, 17.48, 0.96, 7.38, -3.00, -0.36
-8, -18.84, -8.05, 11.76, 18.31, 4.18, 9.88, -2.93, 6.17
-7, -19.09, -16.74, 10.46, 4.49, -11.94, -4.09, -11.96, -6.26
-6, -7.40, -7.26, 5.39, 15.51, -0.09, 1.72, -5.48, 1.97
-5, -17.84, -16.65, 2.44, 2.24, -14.64, -13.19, -9.12, -8.45
-4, -9.41, -6.06, -1.23, 16.74, 0.98, 3.69, 1.70, 5.19
-3, 1.72, -4.22, 2.64, 13.48, 6.57, 2.01, 8.11, 7.24
-2, -9.57, -10.77, 2.48, 1.16, -8.40, -9.03, -4.67, -4.63
-1, -2.32, -2.77, 7.02, 14.46, 3.04, 4.45, 4.11, 7.51
0, -15.29, -15.83, -0.25, 0.51, -10.15, -8.11, -4.43, -4.20
-29, -9.83, -9.66, -0.45, 7.33, 2.64, -3.31, 1.77, 3.82
-28, -15.38, -19.76, 0.51, -5.45, -7.80, -16.16, -3.82, -2.77
-27, -10.62, -12.85, 1.94, -2.91, -2.01, -13.10, 5.59, 4.47
-26, -6.91, -3.55, 3.80, 3.35, -1.21, -5.65, 6.82, 8.65
-25, -11.18, -7.55, 0.22, -1.97, -7.91, -7.26, 0.49, 3.53
-24, -10.66, -9.07, 1.05, -2.86, -8.05, -9.39, -1.99, 1.10
-23, -8.74, -13.19, 3.29, -2.48, -5.05, -10.68, -4.92, -5.48
-22, -3.98, -9.07, 5.14, 0.00, -1.45, -6.24, -2.24, -0.65
-21, 7.51, 7.55, 8.92, 4.76, -2.50, -3.44, -0.89, 2.30
-20, 0.22, 2.62, 14.53, 0.76, -8.90, -8.92, -1.34, -1.50
-19, -4.69, 4.69, 4.38, 8.56, -4.56, -7.31, -3.06, -0.18
-18, -9.63, -5.03, 5.52, -2.28, -13.12, -19.40, -9.34, -13.41
-17, -1.36, -3.98, 6.12, 10.15, 0.40, -4.09, 0.67, 1.32
-16, -6.55, -10.62, 7.47, -2.79, -8.16, -17.75, -6.33, -10.75
-15, -1.34, -5.88, 3.24, -9.37, -10.08, -24.50, -12.34, -16.38
-14, 7.38, 6.37, -0.98, 0.87, 2.03, -13.77, -8.63, -6.41
-13, -5.63, -6.19, -3.26, -12.67, -12.56, -26.26, -16.14, -14.39
-12, -0.31, -3.49, -6.44, 2.84, 0.00, -8.38, -3.42, 3.13
-11, -12.14, -18.08, -13.79, -11.33, -17.14, -25.19, -14.33, -9.83
-10, -1.45, -4.31, -17.30, -1.10, -6.97, -16.81, -8.09, -4.16
-9, -15.13, -11.94, -22.80, -14.82, -19.40, -26.98, -15.56, -14.28
-8, -0.40, -1.41, -23.11, -7.04, -10.91, -11.38, -7.93, -2.84
-7, -4.83, -6.75, -22.44, -18.48, -21.88, -16.34, -13.84, -5.74
-6, 7.98, 1.48, -19.29, -10.71, -11.73, -10.39, -5.28, 3.08
-5, 1.72, -8.83, -25.44, -20.65, -22.24, -21.70, -12.25, -3.60
-4, 8.25, -4.43, -19.56, -13.01, -11.71, -15.49, -2.50, 3.82
-3, 1.21, -9.45, -26.51, -16.25, -14.69, -20.70, -1.79, 3.11
-2, 2.86, -8.81, -28.12, -16.29, -12.96, -20.74, -0.58, 1.21
-1, -0.65, -13.79, -35.32, -20.03, -15.98, -22.96, -6.03, -1.59
0, -9.07, -9.90, -35.00, -23.36, -16.29, -26.58, -6.06, -4.00
-29, -15.40, -13.68, -33.57, -30.09, -19.29, -29.91, -8.90, -10.04
-28, -15.94, -10.42, -29.35, -32.25, -17.48, -26.80, -10.51, -13.55
-27, -5.92, -6.57, -29.50, -24.86, -5.54, -18.82, -3.80, -5.25
-26, -9.41, -22.62, -25.73, -35.67, -14.44, -28.88, -8.72, -13.97
-25, 2.21, -19.11, -23.69, -25.68, -3.26, -15.20, -0.80, -2.08
-24, -3.76, -21.59, -18.31, -37.42, -13.79, -25.26, -5.65, -10.48
-23, 9.34, -9.95, -23.98, -26.93, -5.14, -13.21, -4.05, -2.97
-22, 1.34, -16.05, -23.80, -42.76, -19.33, -26.82, -12.47, -15.36
-21, 11.06, -4.74, -21.70, -26.89, -4.81, -13.46, -2.44, -2.91
-20, -1.97, -20.27, -26.67, -41.51, -23.69, -34.24, -13.43, -17.10
-19, 5.99, -10.44, -27.47, -28.12, -17.50, -25.53, -10.68, -10.42
-18, -7.22, -18.57, -30.60, -39.94, -31.23, -39.27, -20.21, -24.25
-17, -9.57, -21.84, -39.76, -44.97, -30.06, -45.98, -28.27, -29.30
-16, 2.84, -18.37, -36.90, -34.20, -14.82, -35.87, -19.24, -20.68
-15, -0.92, -25.53, -37.62, -42.80, -23.40, -47.34, -24.70, -27.47
-14, 5.86, -10.62, -33.86, -33.39, -17.64, -39.03, -17.68, -19.40
-13, -2.82, -12.49, -36.77, -39.45, -29.77, -46.18, -23.36, -28.07
-12, -0.72, -10.08, -39.72, -40.10, -34.11, -46.98, -27.89, -37.80
-11, 3.20, -10.28, -33.17, -38.85, -28.03, -44.12, -24.99, -37.84
-10, 3.11, -11.29, -35.34, -38.49, -28.03, -44.32, -24.79, -37.13
-9, 2.62, -8.43, -32.25, -37.28, -28.54, -41.19, -22.08, -34.78
-8, -0.42, -9.81, -34.00, -32.88, -26.53, -37.66, -15.78, -26.64
-7, -3.82, -11.76, -30.17, -36.81, -33.13, -40.86, -17.86, -30.24
-6, 5.97, -5.68, -32.45, -28.43, -28.41, -32.12, -14.33, -23.94
-5, 3.49, -11.15, -24.39, -31.78, -31.85, -35.05, -10.51, -24.39
-4, 12.43, -1.45, -24.90, -22.46, -23.02, -24.50, -4.02, -14.01
-3, 11.51, -7.55, -19.87, -32.30, -32.70, -31.94, -8.40, -21.90
-2, 16.70, 0.67, -23.87, -22.89, -22.26, -21.64, -4.83, -15.69
-1, 4.69, -4.05, -25.19, -35.25, -33.30, -33.04, -14.10, -27.18
0, 17.59, 7.04, -27.83, -21.97, -21.41, -20.85, -11.35, -20.59
-29, 11.33, -2.82, -26.87, -33.21, -32.59, -36.25, -19.47, -33.84
-28, 24.32, 6.30, -25.73, -17.21, -17.99, -21.28, -7.22, -19.49
-27, 15.31, -6.77, -30.06, -31.87, -32.48, -35.79, -15.36, -31.18
-26, 24.34, 4.58, -32.88, -20.85, -25.79, -26.24, -10.66, -23.20
-25, 6.93, -7.26, -34.38, -34.53, -42.07, -38.40, -21.19, -35.61
-24, 13.17, 4.07, -34.60, -23.02, -33.62, -28.10, -17.72, -28.59
-23, 4.87, -2.82, -34.62, -33.46, -46.13, -42.92, -25.84, -37.86
-22, 14.15, 4.83, -32.01, -22.82, -37.84, -32.81, -20.59, -30.85
-21, 5.74, -4.47, -35.14, -32.12, -46.38, -40.81, -25.82, -36.43
-20, 17.61, 3.31, -29.75, -22.64, -35.70, -29.88, -16.32, -25.91
-19, 9.88, -4.52, -25.64, -27.83, -42.33, -33.39, -20.23, -29.37
-18, 14.80, 4.72, -14.91, -18.93, -32.50, -23.74, -13.43, -22.06
-17, 14.35, 3.62, -16.14, -20.25, -30.47, -23.78, -14.37, -21.10
-16, 15.62, 6.77, -12.36, -18.55, -24.14, -20.50, -8.47, -17.72
-15, 6.06, 3.87, -11.15, -22.87, -24.97, -23.22, -9.25, -21.12
-14, 3.67, 3.89, -10.86, -17.81, -24.79, -18.19, -7.73, -16.63
-13, 6.39, -3.67, -9.28, -21.99, -31.83, -23.72, -12.05, -22.53
-12, 7.20, -2.64, -11.78, -13.03, -25.28, -15.53, -8.72, -15.07
-11, 6.01, -12.47, -10.51, -18.75, -30.64, -21.03, -8.92, -19.62
-10, 13.17, -5.79, -21.70, -9.95, -21.14, -12.20, -3.20, -10.82
-9, -2.35, -12.72, -19.38, -17.19, -27.83, -19.07, -4.16, -15.45
-8, 1.61, -3.91, -24.25, -1.92, -18.51, -5.68, -0.27, -6.15
-7, 4.72, -7.47, -19.20, -17.55, -26.67, -12.74, -4.43, -14.04
-6, 13.90, 6.30, -27.25, -9.50, -19.13, -5.68, -2.93, -7.06
-5, 2.93, -0.25, -20.21, -21.21, -32.81, -15.58, -8.14, -15.65
-4, 14.77, 10.21, -21.35, -12.72, -24.39, -4.90, -4.29, -8.40
-3, -5.21, -5.61, -18.78, -21.19, -33.33, -20.32, -6.03, -15.24
-2, 0.60, -0.22, -16.36, -1.90, -16.67, -4.65, 6.59, -0.40
-1, -10.84, -15.85, -17.34, -21.10, -27.09, -21.70, -1.72, -12.43
0, -0.54, -10.57, -17.01, -11.87, -12.85, -11.62, 5.74, -2.95
-29, -9.21, -17.68, -17.93, -23.45, -23.65, -19.02, 1.21, -9.95
-28, 1.34, -9.63, -19.11, -13.19, -14.86, -8.02, 7.40, -3.67
-27, -9.59, -15.80, -15.53, -18.33, -19.56, -13.30, 7.29, -7.11
-26, -6.30, -13.01, -21.70, -15.22, -18.13, -10.86, 14.69, -1.83
-25, -3.06, -12.36, -14.46, -11.47, -8.69, -4.56, 22.08, 3.35
-24, -5.77, -14.06, -13.81, -10.93, -9.37, -2.86, 23.07, 4.81
-23, -0.80, -10.80, -7.42, -4.60, -8.85, 3.71, 25.26, 7.20
-22, -1.25, -8.65, -16.05, -5.63, -10.28, 7.35, 21.21, 6.77
-21, -2.10, -7.67, -13.46, -10.80, -12.27, -2.68, 17.52, 4.72
-20, 0.54, -10.33, -18.55, -4.47, -9.32, 2.53, 18.28, 8.11
-19, -7.64, -13.12, -20.00, -10.08, -15.27, -11.58, 16.43, 0.31
-18, -4.34, -6.50, -17.86, 6.19, -6.68, 0.29, 22.55, 8.69
-17, -0.85, -13.86, -6.33, -2.64, -5.99, 8.52, 27.78, 11.35
-16, 5.48, -4.34, -14.91, 9.57, 2.41, 22.55, 30.38, 19.89
-15, 0.27, -12.43, -11.60, -7.02, -1.59, 8.20, 27.16, 14.06
-14, 4.54, -2.44, -9.45, -4.20, 12.63, 15.29, 33.39, 25.68
-13, -11.67, -10.46, -9.37, -10.26, -0.31, 3.08, 23.69, 13.32
-12, 2.15, 2.88, -9.54, 5.83, 10.75, 15.89, 28.43, 21.41
-11, -2.77, -10.55, -6.24, -3.84, 0.65, 5.21, 21.88, 11.06
-10, 12.63, -3.91, -6.55, 7.64, 15.83, 23.47, 28.39, 21.75
-9, 2.64, -11.22, -9.30, -7.98, -0.72, 3.62, 16.90, 7.33
-8, 10.39, -3.73, -10.53, 4.85, 9.39, 12.14, 21.86, 11.53
-7, -4.07, -6.50, -7.22, -8.69, -1.77, 5.97, 15.22, 2.44
-6, 3.78, 5.54, -2.35, 6.86, 8.81, 22.15, 22.75, 13.28
-5, -7.82, -6.19, -12.11, 2.86, -6.06, 6.73, 6.59, -2.21
-4, 5.14, 1.90, -9.99, 2.57, -0.02, 14.95, 8.81, 1.16
-3, 0.13, -0.80, -11.22, -9.05, -10.80, -2.64, -2.73, -10.62
-2, 7.58, 4.92, -8.05, 6.26, -6.01, 4.11, -3.00, -10.66
-1, -0.58, -0.47, -13.70, -2.44, -14.91, -1.03, -11.33, -19.56
0, 2.39, -0.47, -8.81, -6.75, -5.10, -0.80, -2.06, -12.32
-29, -4.45, -4.54, -13.57, -5.25, -15.62, -0.94, -9.41, -16.43
-28, 5.28, -0.38, -7.76, -5.19, -13.25, -3.24, -4.45, -15.33
-27, 4.54, 4.11, -5.70, -2.46, -11.38, -2.19, -0.40, -9.97
-26, 4.67, 7.60, 0.94, -1.21, -9.41, -3.44, 0.65, -10.62
-25, 6.19, 6.82, 0.76, 3.29, -3.24, -1.14, 3.84, -5.48
-24, 3.44, 0.04, -1.05, -9.81, -12.92, -2.82, 3.64, -5.83
-23, 11.69, 3.02, -3.46, -8.65, -5.43, 1.56, 6.15, -1.45
-22, 9.50, -1.74, 7.60, -12.90, -16.18, -6.68, 2.95, -7.31
-21, 14.60, 7.64, 10.21, 2.93, -3.73, 7.33, 11.40, 7.31
-20, 3.17, -1.41, 10.15, -8.92, -7.67, -2.57, 7.44, 0.20
-19, 12.54, 5.14, 11.29, 5.74, 5.30, 8.05, 15.56, 11.33
-18, -2.66, -3.58, 39.94, 2.17, -6.75, -1.54, 15.36, 6.71
-17, 7.04, 4.60, 45.60, 10.59, 9.03, 11.04, 20.92, 17.01
-16, 1.18, -7.69, 5.45, -0.47, -9.19, 0.40, 7.53, 5.14
-15, 6.35, -2.08, -6.79, -5.88, 0.16, 9.83, 16.25, 13.23
-14, 16.38, 7.69, -18.15, 5.92, 9.14, 18.24, 21.84, 23.29
-13, 0.60, -0.51, 6.71, -6.37, -6.48, 1.74, 14.53, 11.73
-12, 4.25, 7.93, 18.80, 6.26, 8.92, 11.82, 18.80, 21.08
-11, -1.10, -3.62, 6.46, -4.11, -3.91, 2.35, 8.25, 11.31
-10, 7.82, 3.51, 8.43, 8.61, 3.55, 18.10, 13.84, 18.48
-9, -2.39, -3.71, 12.56, -4.00, -2.26, 5.10, 9.23, 10.39
-8, 1.10, 1.99, 18.55, 1.81, 1.56, 7.20, 10.10, 11.11
-7, -6.71, -3.29, 16.05, -0.34, -5.81, 2.53, 3.15, 3.33
-6, 3.00, -0.69, 23.25, 1.56, 0.56, 7.35, 13.23, 8.02
-5, 6.57, -1.01, 30.93, 10.30, 2.59, 16.94, 18.15, 11.27
-4, 7.87, -1.16, 24.79, 5.48, 3.80, 13.21, 18.31, 13.77
-3, 5.97, -1.23, 28.54, 2.35, 2.77, 11.82, 18.73, 10.62
-2, 8.63, 4.31, 24.59, 12.43, 7.62, 20.32, 17.50, 14.15
-1, 7.69, 6.55, 36.68, 16.63, -0.16, 15.76, 11.91, 5.12
0, 11.40, 15.85, 40.59, 18.53, 10.62, 23.67, 19.31, 16.85
-29, 7.02, 12.81, 47.74, 0.87, -6.82, 1.83, 11.58, 3.82
-28, 13.19, 13.81, 31.85, 18.53, 6.86, 13.66, 12.61, 9.66
-27, 5.10, 0.25, 13.97, 7.20, -2.88, 5.45, 9.66, 4.31
-26, 20.50, 6.10, 4.67, 9.68, 4.18, 23.60, 14.95, 15.29
-25, 7.55, -3.26, -1.05, 1.63, -0.34, 6.91, 7.26, 5.05
-24, 14.66, 10.39, 6.64, 12.14, 12.25, 17.77, 14.95, 17.03
-23, 7.13, 5.81, 16.21, -4.20, 3.73, -0.67, 7.35, 2.64
-22, 15.62, 14.93, 20.90, 13.25, 14.93, 5.48, 14.13, 11.69
-21, 3.64, 0.31, 20.12, -4.16, -0.36, -2.24, 2.17, -1.16
-20, 18.95, 7.62, 13.14, 5.43, 8.81, 15.71, 10.06, 9.92
-19, 7.96, -0.54, 19.07, -11.27, -8.61, -2.26, 2.86, 2.19
-18, 13.25, 7.58, 12.20, 4.14, 4.54, 5.61, 7.47, 8.27
-17, 5.19, -3.24, 0.40, -2.57, -4.20, -6.24, -3.93, -4.52
-16, 10.19, 1.43, 13.90, 5.90, 7.15, 7.11, 6.03, 4.98
-15, 0.49, -9.12, 7.58, -3.49, -8.16, 0.07, -3.93, -4.47
-14, 5.59, 0.07, 1.63, 6.68, -6.59, 2.86, -5.99, -5.10
-13, -4.36, 0.22, -1.68, 9.68, -15.60, -6.86, -10.84, -11.51
-12, 7.49, 6.10, 14.64, 1.43, -3.58, 4.60, -1.34, -1.72
-11, 4.96, 9.81, 22.31, 1.92, 0.80, 0.45, -3.22, -1.39
-10, 10.06, 13.21, 24.56, -1.56, 1.70, 5.41, 4.00, 5.01
-9, 14.33, 13.72, 18.33, -1.41, 6.46, 11.13, 9.48, 10.37
-8, 7.80, 16.41, 7.47, 18.93, 2.66, 16.27, 6.12, 8.45
-7, 6.21, 9.88, 11.47, 3.91, -3.42, 13.41, 3.84, 2.21
-6, 8.78, 10.39, 24.63, 9.28, 11.65, 23.63, 6.86, 8.23
-5, -3.20, 3.44, 16.07, -2.30, -5.50, 6.35, -11.49, -6.57
-4, 3.80, 9.43, 8.49, 7.82, 2.64, 7.76, -9.39, -3.84
-3, -1.61, 2.68, 14.73, -8.63, -10.08, -6.93, -17.52, -15.56
-2, 3.93, 11.18, 7.15, 0.60, -0.87, 4.16, -12.45, -3.51
-1, -1.99, 1.10, 17.64, -10.06, -14.57, -6.19, -14.62, -12.29
0, 12.52, 8.45, 7.87, -7.80, -2.50, -1.56, -9.68, -4.58
-29, 1.34, -1.70, 4.85, -18.57, -12.67, -15.27, -19.24, -16.96
-28, 10.21, 9.83, 2.01, -2.01, 0.18, 0.72, -11.73, -5.70
-27, -0.67, 2.41, 5.19, -15.07, -18.75, -14.71, -21.37, -17.93
-26, 11.60, 13.52, 9.43, 3.91, -8.76, 1.36, -12.63, -6.68
-25, 0.16, 0.40, 6.48, -3.20, -18.93, -10.35, -17.81, -13.72
-24, 11.27, 5.70, 13.03, 3.33, -6.21, -1.56, -8.99, -6.33
-23, -1.10, 0.85, 10.19, -3.38, -17.08, -9.48, -15.76, -16.81
-22, 1.81, 9.68, 19.94, 3.08, -6.68, 5.50, -5.83, -7.35
-21, -5.48, 4.47, 19.33, -8.76, -9.45, -3.29, -12.99, -10.15
-20, 9.81, 12.94, 26.73, 2.73, 4.58, 5.28, -2.46, -1.14
-19, 13.21, 6.64, 7.49, 0.38, 3.80, -0.11, -2.19, -1.45
-18, 22.11, 10.53, 6.97, 3.67, 6.66, 9.01, 8.29, 7.67
-17, 15.98, 12.81, 1.41, 10.08, 6.19, 16.58, 6.17, 7.51
-16, 12.20, 12.00, 6.48, 11.31, 1.14, 21.01, 7.06, 6.82
-15, 3.31, 13.32, 8.52, 9.54, -2.75, 20.18, 4.07, 8.92
